COUNTER,AF3,F7,F3,FC5,T7,P7,O1,O2,P8,T8,FC6,F4,F8,AF4,GYROX,GYROY,TIMESTAMP,FUNC_ID,FUNC_VALUE,MARKER,SYNC_SIGNAL,STIM,
88,4251.79,4686.67,4320,4368.21,4217.44,4458.46,4091.79,4029.74,4488.72,4271.28,3944.62,4653.33,4598.97,4360,1686,1687,5.604,0,0,0,0,0
89,4251.79,4686.67,4320,4368.21,4217.44,4457.95,4090.26,4030.77,4488.72,4272.31,3944.62,4654.36,4598.97,4361.03,1688,1683,5.612,0,0,0,0,0
90,4251.79,4686.15,4320,4368.21,4217.44,4460.51,4094.87,4030.77,4488.72,4272.31,3944.62,4656.41,4598.97,4357.95,1689,1680,5.619,0,0,0,0,0
91,4251.79,4686.15,4320,4368.21,4217.44,4459.49,4090.26,4022.05,4488.72,4269.74,3944.62,4656.92,4598.97,4345.13,1690,1677,5.627,0,0,0,0,0
92,4251.79,4687.69,4320,4368.21,4217.44,4456.92,4081.03,4011.28,4488.72,4274.36,3944.62,4656.41,4598.97,4344.62,1689,1675,5.635,0,0,0,0,0
93,4251.79,4688.72,4320,4368.21,4217.44,4458.46,4086.67,4011.79,4488.72,4278.97,3944.62,4655.9,4598.97,4357.44,1690,1676,5.643,0,0,0,0,0
94,4251.79,4687.69,4320,4368.21,4217.44,4460,4093.33,4020.51,4488.72,4272.31,3944.62,4654.36,4598.97,4354.36,1688,1676,5.651,0,0,0,0,0
95,4251.79,4687.18,4320,4368.21,4217.44,4460.51,4090.77,4021.54,4488.72,4267.69,3944.62,4655.38,4598.97,4342.05,1686,1679,5.659,0,0,0,0,0
96,4251.79,4687.69,4320,4368.21,4217.44,4461.54,4091.28,4019.49,4488.72,4272.31,3944.62,4656.92,4598.97,4340.51,1686,1680,5.666,0,0,0,0,0
97,4251.79,4687.18,4320,4368.21,4217.44,4461.54,4093.33,4023.08,4488.72,4273.33,3944.62,4652.82,4598.97,4344.1,1683,1684,5.674,0,0,0,0,0
98,4251.79,4687.18,4320,4368.21,4217.44,4458.97,4090.77,4028.72,4488.72,4271.79,3944.62,4649.23,4598.97,4351.79,1682,1686,5.682,0,0,0,0,0
99,4251.79,4687.18,4320,4368.21,4217.44,4458.46,4091.28,4032.82,4488.72,4274.36,3944.62,4648.21,4598.97,4362.56,1681,1688,5.69,0,0,0,0,0
100,4251.79,4687.18,4320,4368.21,4217.44,4457.95,4093.85,4032.82,4488.72,4276.92,3944.62,4648.72,4598.97,4356.41,1682,1688,5.698,0,0,0,0,0
101,4251.79,4687.18,4320,4368.21,4217.44,4454.36,4088.72,4029.23,4488.72,4278.97,3944.62,4649.23,4598.97,4348.72,1681,1689,5.705,0,0,0,0,0
102,4251.79,4687.18,4320,4368.21,4217.44,4451.28,4082.56,4025.13,4488.72,4282.05,3944.62,4649.23,4598.97,4350.77,1682,1687,5.713,0,0,0,0,0
103,4251.79,4687.18,4320,4368.21,4217.44,4456.92,4089.74,4025.64,4488.72,4276.92,3944.62,4649.74,4598.97,4342.56,1682,1686,5.721,0,0,0,0,0
104,4251.79,4687.18,4320,4368.21,4217.44,4469.74,4103.59,4036.92,4488.21,4268.72,3944.62,4652.31,4598.97,4336.41,1683,1685,5.729,0,0,0,0,0
105,4251.79,4687.18,4320,4368.21,4217.44,4479.49,4110.26,4045.64,4487.18,4268.72,3944.62,4652.82,4598.97,4351.79,1683,1683,5.737,0,0,0,0,0
106,4251.79,4687.18,4320,4368.21,4217.44,4474.36,4104.62,4040.51,4486.67,4273.33,3944.62,4649.74,4598.97,4358.46,1683,1684,5.745,0,0,0,0,0
107,4251.79,4687.18,4320,4368.21,4217.44,4464.1,4098.46,4035.9,4487.18,4273.33,3944.62,4648.72,4598.97,4344.62,1684,1682,5.752,0,0,0,0,0
108,4251.79,4687.18,4320,4368.21,4217.44,4465.13,4103.08,4044.62,4489.23,4270.26,3944.62,4650.26,4598.97,4338.46,1681,1683,5.76,0,0,0,0,0
109,4251.79,4687.18,4320,4368.21,4217.44,4473.85,4107.18,4048.72,4490.26,4270.77,3944.62,4650.77,4598.97,4343.08,1682,1683,5.768,0,0,0,0,0
110,4251.79,4687.18,4320,4368.21,4217.44,4475.38,4099.49,4036.41,4489.23,4278.46,3944.62,4650.77,4598.97,4345.64,1681,1683,5.776,0,0,0,0,0
111,4251.79,4687.18,4320,4368.21,4217.44,4467.18,4088.72,4020.51,4488.72,4279.49,3944.62,4650.26,4598.97,4336.92,1681,1685,5.784,0,0,0,0,0
112,4251.79,4687.18,4320,4368.21,4217.44,4466.15,4090.26,4015.9,4488.72,4268.72,3944.62,4649.74,4598.97,4326.15,1680,1685,5.791,0,0,0,0,0
113,4251.28,4687.18,4320,4368.21,4217.44,4474.87,4101.54,4023.08,4488.72,4264.62,3944.62,4650.26,4598.97,4328.72,1680,1686,5.799,0,0,0,0,0
114,4250.77,4687.18,4320,4368.21,4217.44,4477.44,4108.21,4029.74,4488.72,4273.33,3944.62,4649.74,4598.97,4341.54,1678,1686,5.807,0,0,0,0,0
115,4251.28,4687.18,4320,4368.21,4217.44,4475.9,4104.1,4030.77,4488.72,4273.85,3944.62,4649.74,4598.97,4347.18,1678,1687,5.815,0,0,0,0,0
116,4252.82,4687.18,4320,4368.21,4217.44,4471.79,4096.41,4028.72,4488.72,4270.26,3944.62,4649.74,4598.97,4346.15,1678,1685,5.823,0,0,0,0,0
117,4250.77,4687.18,4320,4368.21,4217.44,4464.62,4091.79,4028.72,4488.72,4276.41,3944.62,4649.74,4598.97,4353.33,1676,1687,5.831,0,0,0,0,0
118,4250.26,4687.18,4320,4368.21,4217.44,4457.44,4089.23,4029.23,4488.72,4282.05,3944.62,4649.74,4598.97,4360.51,1677,1686,5.838,0,0,0,0,0
119,4262.05,4686.67,4320,4368.21,4217.44,4458.46,4087.18,4027.18,4488.72,4282.56,3944.62,4650.26,4598.97,4354.87,1676,1686,5.846,0,0,0,0,0
120,4264.1,4686.67,4320,4368.21,4217.44,4458.97,4082.05,4018.97,4488.72,4278.46,3944.62,4649.23,4598.97,4345.13,1678,1686,5.854,0,0,0,0,0
121,4251.79,4686.67,4320,4368.21,4217.44,4457.95,4077.95,4010.77,4488.72,4272.31,3944.62,4650.26,4598.97,4346.67,1677,1685,5.861,0,0,0,0,0
122,4247.69,4686.67,4320,4368.21,4217.44,4458.97,4081.54,4012.82,4488.72,4270.77,3944.62,4652.82,4598.97,4355.9,1679,1684,5.869,0,0,0,0,0
123,4253.85,4686.15,4320,4368.21,4217.44,4459.49,4084.62,4018.97,4488.72,4270.26,3944.62,4651.79,4598.97,4356.92,1679,1683,5.876,0,0,0,0,0
124,4252.31,4686.67,4320,4368.21,4217.44,4457.95,4085.13,4020,4488.72,4267.18,3944.62,4649.23,4598.97,4353.33,1680,1682,5.884,0,0,0,0,0
125,4249.74,4688.72,4320,4368.21,4218.46,4461.54,4092.31,4026.67,4488.72,4266.15,3944.62,4649.23,4598.97,4355.38,1680,1681,5.892,0,0,0,0,0
126,4252.31,4687.69,4320,4368.21,4218.46,4472.31,4103.59,4041.03,4488.72,4267.18,3944.62,4650.26,4598.97,4363.59,1681,1681,5.9,0,0,0,0,0
127,4252.31,4685.13,4320,4368.21,4218.46,4473.85,4107.18,4046.67,4488.72,4267.18,3944.62,4650.26,4598.97,4368.21,1680,1679,5.908,0,0,0,0,0
128,4251.28,4684.62,4320,4368.21,4218.46,4461.03,4104.1,4044.62,4489.23,4268.21,3944.62,4650.77,4598.97,4364.62,1680,1681,5.916,0,0,0,0,0
0,4250.77,4687.18,4320,4368.21,4218.46,4460,4104.1,4049.23,4488.21,4267.69,3944.62,4651.28,4598.97,4357.95,1681,1678,5.923,0,0,0,0,0
1,4250.77,4687.69,4320,4368.21,4218.46,4472.82,4108.21,4052.82,4487.18,4265.64,3944.62,4651.28,4598.97,4359.49,1679,1680,5.931,0,0,0,0,0
2,4251.28,4687.18,4320,4368.21,4218.46,4476.92,4108.21,4047.18,4487.69,4274.36,3944.62,4650.77,4598.97,4360,1681,1681,5.939,0,0,0,0,0
3,4250.77,4686.15,4320,4368.21,4218.46,4472.31,4105.13,4043.08,4488.72,4283.59,3944.62,4651.79,4598.97,4349.23,1681,1682,5.947,0,0,0,0,0
4,4250.77,4686.67,4320,4368.21,4218.46,4472.82,4105.13,4045.64,4488.72,4282.05,3944.62,4652.31,4598.97,4349.23,1683,1685,5.955,0,0,0,0,0
5,4250.77,4688.21,4320,4368.21,4218.46,4475.38,4106.67,4046.67,4488.21,4279.49,3944.62,4650.26,4598.97,4360,1685,1686,5.963,0,0,0,0,0
6,4250.77,4687.18,4320,4368.21,4218.46,4469.74,4105.13,4040.51,4488.72,4279.49,3944.62,4648.21,4598.97,4358.97,1686,1691,5.97,0,0,0,0,0
7,4250.77,4685.64,4320,4368.21,4218.46,4460.51,4098.46,4032.82,4488.72,4277.95,3944.62,4648.72,4598.97,4353.85,1688,1693,5.978,0,0,0,0,0
8,4250.77,4686.67,4320,4368.21,4218.46,4461.03,4093.85,4028.72,4488.72,4275.9,3944.62,4648.72,4598.97,4355.38,1690,1696,5.986,0,0,0,0,0
9,4250.77,4687.69,4320,4368.21,4218.46,4465.64,4094.87,4029.74,4488.72,4272.82,3944.62,4649.23,4598.97,4358.97,1691,1695,5.994,0,0,0,0,0
10,4250.77,4687.18,4320,4368.21,4218.46,4464.1,4094.87,4029.74,4488.72,4271.28,3944.62,4650.26,4598.97,4363.08,1692,1693,6.002,0,0,0,0,0
11,4250.77,4687.18,4320,4368.21,4218.46,4465.64,4090.77,4024.1,4488.72,4272.31,3944.62,4648.72,4598.97,4359.49,1692,1691,6.009,0,0,0,0,0
12,4250.77,4687.18,4320,4368.21,4218.46,4473.33,4094.36,4021.54,4488.72,4272.82,3944.62,4651.79,4598.97,4354.87,1693,1689,6.017,0,0,0,0,0
13,4250.77,4687.18,4320,4368.21,4218.46,4477.95,4104.62,4030.77,4488.72,4271.28,3944.62,4657.44,4598.97,4361.54,1694,1686,6.025,0,0,0,0,0
14,4250.77,4687.18,4320,4368.21,4218.46,4476.41,4108.72,4041.54,4488.72,4271.28,3944.62,4656.41,4598.97,4364.1,1696,1683,6.033,0,0,0,0,0
15,4250.77,4687.18,4320,4368.21,4218.46,4467.69,4101.03,4037.44,4488.72,4271.79,3944.62,4653.33,4598.97,4354.36,1697,1680,6.041,0,0,0,0,0
16,4250.77,4687.18,4320,4368.21,4218.97,4457.44,4087.18,4022.56,4488.72,4271.28,3944.62,4655.38,4598.97,4346.67,1699,1679,6.048,0,0,0,0,0
17,4250.77,4687.18,4320,4368.21,4218.46,4456.41,4080.51,4015.38,4488.72,4271.28,3944.62,4655.38,4598.97,4351.28,1699,1677,6.056,0,0,0,0,0
18,4250.77,4687.18,4320,4368.21,4216.92,4458.97,4081.54,4013.33,4488.72,4272.31,3944.62,4650.26,4598.97,4360,1698,1678,6.064,0,0,0,0,0
19,4250.77,4687.18,4320,4368.21,4216.41,4458.97,4081.54,4007.18,4488.72,4271.79,3944.62,4648.72,4598.97,4355.9,1699,1677,6.072,0,0,0,0,0
20,4250.77,4687.18,4320,4368.21,4216.92,4464.1,4083.08,4004.62,4488.72,4270.26,3944.62,4649.23,4598.97,4344.62,1695,1679,6.08,0,0,0,0,0
21,4250.77,4687.18,4320,4368.21,4216.41,4472.82,4097.95,4023.59,4488.72,4275.9,3944.62,4648.72,4598.97,4350.26,1695,1680,6.088,0,0,0,0,0
22,4250.77,4687.18,4320,4368.21,4215.9,4485.13,4121.03,4057.95,4488.72,4282.05,3944.62,4652.82,4598.97,4366.67,1692,1682,6.095,0,0,0,0,0
23,4250.77,4687.18,4320,4368.21,4216.41,4494.36,4131.79,4081.54,4488.72,4275.9,3944.62,4655.9,4598.97,4375.9,1691,1685,6.103,0,0,0,0,0
24,4250.77,4687.18,4320,4368.21,4216.41,4486.67,4125.64,4076.92,4488.72,4272.82,3944.62,4650.26,4598.97,4372.31,1689,1686,6.111,0,0,0,0,0
25,4250.77,4687.18,4320,4368.21,4216.41,4469.74,4112.31,4055.38,4488.72,4278.46,3944.62,4649.23,4598.97,4367.18,1688,1687,6.119,0,0,0,0,0
26,4250.77,4687.18,4320,4368.21,4216.41,4461.03,4101.03,4037.95,4488.72,4273.33,3944.62,4653.85,4598.97,4366.15,1687,1688,6.127,0,0,0,0,0
27,4250.77,4687.18,4320,4368.21,4216.41,4457.44,4091.79,4025.64,4488.72,4264.62,3944.62,4652.31,4598.97,4361.03,1687,1688,6.135,0,0,0,0,0
28,4250.77,4687.18,4320,4368.21,4216.41,4458.46,4087.69,4017.44,4488.72,4266.15,3944.62,4650.77,4598.97,4356.41,1688,1687,6.142,0,0,0,0,0
29,4250.77,4687.18,4320,4368.21,4216.41,4470.26,4090.26,4012.82,4488.72,4266.15,3944.62,4656.41,4598.97,4355.9,1688,1687,6.15,0,0,0,0,0
30,4250.77,4687.69,4320,4368.21,4216.41,4476.41,4090.77,4010.77,4488.72,4265.13,3944.62,4656.92,4598.97,4353.85,1690,1686,6.158,0,0,0,0,0
31,4250.77,4687.18,4320,4368.21,4216.41,4474.87,4094.36,4017.95,4488.72,4272.31,3944.62,4654.36,4598.97,4351.79,1689,1685,6.166,0,0,0,0,0
32,4250.77,4685.64,4320,4368.21,4216.41,4477.44,4102.56,4031.28,4488.72,4274.87,3944.62,4654.87,4598.97,4357.44,1690,1685,6.174,0,0,0,0,0
33,4250.77,4685.64,4320,4368.21,4216.41,4473.85,4103.08,4037.95,4488.72,4271.28,3944.62,4651.79,4598.97,4362.56,1688,1683,6.181,0,0,0,0,0
34,4250.77,4687.18,4320,4368.21,4216.41,4460.51,4095.9,4037.44,4488.72,4272.31,3944.62,4648.72,4598.97,4361.03,1688,1684,6.189,0,0,0,0,0
35,4250.77,4687.69,4320,4368.21,4216.41,4454.87,4093.33,4032.82,4488.72,4273.33,3944.62,4647.69,4598.97,4360,1687,1682,6.197,0,0,0,0,0
36,4250.77,4687.18,4320,4368.21,4216.41,4458.97,4092.82,4022.05,4488.72,4273.33,3944.62,4648.21,4598.97,4352.31,1686,1682,6.205,0,0,0,0,0
37,4250.77,4687.18,4320,4368.21,4216.41,4458.97,4087.18,4011.79,4488.72,4272.31,3944.62,4652.31,4598.97,4349.74,1685,1681,6.213,0,0,0,0,0
38,4250.77,4686.67,4320,4368.21,4216.41,4458.46,4081.54,4010.26,4488.72,4269.74,3944.62,4653.33,4598.97,4365.13,1685,1682,6.221,0,0,0,0,0
39,4250.77,4686.15,4320,4368.21,4216.41,4460,4081.03,4014.87,4488.72,4266.67,3944.62,4649.23,4598.97,4374.36,1684,1683,6.228,0,0,0,0,0
40,4250.77,4686.15,4320,4368.21,4216.41,4462.05,4089.74,4025.64,4488.72,4266.67,3944.62,4647.69,4598.97,4371.28,1683,1684,6.236,0,0,0,0,0
41,4250.77,4686.67,4320,4368.21,4216.41,4463.59,4097.44,4038.97,4488.72,4275.38,3944.62,4650.26,4598.97,4375.9,1685,1685,6.244,0,0,0,0,0
42,4250.77,4686.15,4320,4368.21,4216.41,4462.56,4093.85,4041.03,4488.72,4284.1,3944.62,4650.26,4598.97,4379.49,1683,1686,6.252,0,0,0,0,0
43,4250.77,4686.15,4320,4368.21,4216.41,4456.41,4089.74,4037.95,4488.72,4277.95,3944.62,4649.74,4598.97,4361.54,1683,1687,6.26,0,0,0,0,0
44,4250.77,4687.69,4320,4368.21,4216.41,4456.92,4098.46,4043.59,4488.72,4267.18,3944.62,4649.23,4598.97,4353.33,1683,1686,6.267,0,0,0,0,0
45,4250.77,4687.69,4320,4368.21,4216.41,4469.23,4111.28,4051.28,4488.72,4264.62,3944.62,4648.72,4598.97,4369.23,1681,1688,6.275,0,0,0,0,0
46,4250.77,4686.67,4320,4368.21,4216.41,4473.85,4110.26,4049.74,4488.72,4264.62,3944.62,4648.72,4598.97,4375.38,1681,1685,6.283,0,0,0,0,0
47,4250.77,4686.15,4320,4368.21,4216.41,4468.72,4104.1,4043.08,4488.72,4269.23,3944.62,4650.26,4598.97,4366.67,1680,1686,6.291,0,0,0,0,0
48,4250.77,4686.15,4320,4368.21,4216.41,4473.33,4110.26,4043.59,4488.72,4274.87,3944.62,4653.85,4598.97,4362.56,1681,1684,6.299,0,0,0,0,0
49,4250.77,4686.15,4320,4368.21,4216.41,4474.87,4115.38,4048.21,4488.72,4272.31,3944.62,4652.82,4598.97,4367.69,1681,1684,6.307,0,0,0,0,0
50,4250.77,4687.18,4319.49,4368.21,4216.41,4462.05,4108.72,4048.21,4488.72,4273.33,3944.62,4649.23,4598.97,4366.15,1682,1683,6.314,0,0,0,0,0
51,4250.77,4687.69,4319.49,4368.21,4216.41,4456.92,4101.54,4044.62,4488.72,4281.03,3944.62,4649.74,4598.97,4360.51,1681,1683,6.322,0,0,0,0,0
52,4250.77,4687.18,4320,4368.21,4216.41,4462.56,4103.08,4044.1,4488.72,4282.56,3944.62,4650.26,4598.97,4369.23,1682,1683,6.33,0,0,0,0,0
53,4250.77,4687.18,4319.49,4368.21,4216.41,4462.05,4104.1,4046.15,4488.72,4277.44,3944.62,4648.72,4598.97,4373.33,1681,1683,6.338,0,0,0,0,0
54,4250.77,4686.67,4319.49,4368.21,4216.41,4460,4098.46,4045.64,4488.72,4277.44,3944.62,4648.72,4598.97,4360,1682,1685,6.346,0,0,0,0,0
55,4250.77,4686.15,4322.05,4368.21,4216.41,4457.95,4094.87,4042.05,4488.72,4280,3944.62,4648.21,4598.97,4359.49,1680,1684,6.353,0,0,0,0,0
56,4250.77,4686.15,4325.64,4368.21,4216.41,4461.54,4101.54,4043.59,4488.72,4278.46,3944.62,4650.26,4598.97,4380,1680,1686,6.361,0,0,0,0,0
57,4250.77,4686.67,4326.15,4368.21,4216.41,4471.28,4109.23,4050.77,4488.72,4277.95,3944.62,4656.41,4598.97,4386.15,1681,1685,6.369,0,0,0,0,0
58,4250.77,4686.15,4325.13,4368.21,4216.41,4475.9,4113.85,4054.36,4488.72,4278.97,3944.62,4654.87,4598.97,4371.79,1678,1686,6.377,0,0,0,0,0
59,4250.77,4686.15,4325.13,4368.21,4216.41,4475.38,4115.38,4052.82,4488.72,4273.33,3944.62,4648.21,4598.97,4358.46,1679,1686,6.385,0,0,0,0,0
60,4250.77,4686.15,4325.64,4368.21,4216.41,4469.74,4106.67,4046.67,4488.72,4267.18,3944.62,4648.21,4598.97,4356.92,1679,1685,6.393,0,0,0,0,0
61,4250.77,4686.15,4325.13,4368.21,4216.41,4462.56,4097.95,4036.92,4488.21,4269.74,3944.62,4651.79,4598.97,4367.18,1678,1686,6.4,0,0,0,0,0
62,4250.77,4686.15,4325.13,4368.21,4216.41,4462.56,4103.59,4035.38,4488.72,4273.85,3944.62,4651.28,4598.97,4371.28,1678,1685,6.408,0,0,0,0,0
63,4250.77,4686.15,4325.13,4368.21,4215.9,4464.1,4106.67,4041.54,4488.72,4271.79,3944.62,4650.26,4598.97,4363.08,1678,1685,6.416,0,0,0,0,0
64,4250.77,4686.15,4325.13,4368.21,4216.41,4459.49,4097.95,4042.56,4488.21,4270.77,3944.62,4651.28,4598.97,4361.03,1679,1685,6.424,0,0,0,0,0
65,4250.77,4686.15,4325.13,4368.21,4218.46,4457.95,4096.92,4041.03,4489.23,4274.36,3944.62,4651.28,4598.97,4365.64,1680,1683,6.432,0,0,0,0,0
66,4250.77,4686.15,4325.13,4368.21,4218.46,4460,4103.08,4045.13,4490.26,4280,3944.62,4650.77,4598.97,4370.26,1679,1682,6.439,0,0,0,0,0
67,4250.77,4686.15,4325.13,4368.21,4217.44,4462.56,4105.64,4046.15,4490.77,4280,3944.62,4650.77,4598.97,4379.49,1680,1681,6.447,0,0,0,0,0
68,4250.77,4686.15,4325.13,4368.21,4217.44,4470.26,4108.72,4045.13,4490.77,4271.28,3944.62,4650.77,4598.97,4386.15,1680,1681,6.455,0,0,0,0,0
69,4250.77,4686.15,4325.13,4368.21,4217.44,4475.9,4111.28,4050.26,4489.74,4268.21,3944.62,4650.77,4598.97,4375.38,1681,1680,6.463,0,0,0,0,0
70,4250.77,4686.15,4325.13,4368.21,4217.95,4471.79,4110.77,4054.87,4487.69,4272.31,3944.62,4650.77,4598.97,4367.18,1680,1681,6.471,0,0,0,0,0
71,4250.77,4686.15,4325.13,4368.21,4218.46,4460,4107.69,4046.15,4487.18,4272.82,3944.62,4650.77,4598.97,4375.38,1683,1681,6.479,0,0,0,0,0
72,4250.77,4686.15,4325.13,4368.21,4218.46,4459.49,4103.59,4034.87,4488.72,4271.28,3944.62,4650.77,4598.97,4376.41,1682,1681,6.486,0,0,0,0,0
73,4250.77,4686.15,4325.13,4368.21,4218.46,4473.33,4108.21,4039.49,4488.72,4272.82,3944.62,4650.77,4598.97,4360.51,1683,1683,6.494,0,0,0,0,0
74,4250.77,4686.15,4325.13,4368.21,4219.49,4481.54,4121.03,4048.72,4488.21,4272.82,3944.62,4651.28,4598.97,4348.21,1683,1683,6.502,0,0,0,0,0
75,4250.77,4686.15,4325.13,4368.21,4218.97,4475.9,4122.05,4046.67,4488.72,4271.28,3944.62,4651.28,4598.97,4350.77,1684,1686,6.51,0,0,0,0,0
76,4250.77,4686.15,4325.13,4368.21,4217.95,4471.28,4109.74,4042.56,4490.26,4271.79,3944.62,4650.77,4598.97,4355.9,1685,1685,6.518,0,0,0,0,0
77,4250.77,4686.15,4325.13,4368.21,4218.46,4471.28,4104.62,4045.64,4490.26,4271.79,3944.62,4650.26,4598.97,4362.05,1684,1688,6.526,0,0,0,0,0
78,4250.77,4686.15,4325.13,4368.21,4218.46,4474.87,4108.21,4045.64,4487.69,4271.28,3944.62,4651.79,4598.97,4366.15,1687,1691,6.533,0,0,0,0,0
79,4250.77,4686.15,4325.13,4368.21,4218.46,4475.9,4107.69,4039.49,4487.69,4271.79,3944.62,4650.77,4598.97,4360,1688,1692,6.541,0,0,0,0,0
80,4250.77,4686.15,4325.13,4368.21,4218.46,4465.13,4101.03,4036.41,4488.72,4272.31,3944.62,4647.18,4598.97,4353.33,1690,1693,6.549,0,0,0,0,0
81,4250.77,4686.15,4325.13,4368.21,4218.46,4454.36,4091.79,4036.41,4488.72,4271.28,3944.62,4649.23,4598.97,4350.26,1691,1692,6.557,0,0,0,0,0
82,4250.77,4686.15,4325.13,4368.21,4218.46,4454.36,4089.23,4031.28,4488.21,4273.33,3944.62,4656.41,4598.97,4347.18,1692,1691,6.565,0,0,0,0,0
83,4250.77,4686.15,4325.13,4368.21,4218.46,4455.9,4093.33,4026.67,4488.72,4278.97,3944.62,4656.41,4598.97,4343.59,1692,1689,6.572,0,0,0,0,0
84,4250.77,4686.15,4325.13,4368.21,4218.46,4454.36,4093.85,4028.21,4488.72,4278.46,3944.62,4649.74,4598.97,4337.44,1693,1689,6.58,0,0,0,0,0
85,4250.77,4686.15,4325.13,4368.21,4218.46,4454.87,4091.28,4029.23,4488.72,4270.26,3944.62,4648.72,4598.97,4331.79,1694,1687,6.588,0,0,0,0,0
86,4250.77,4686.15,4325.13,4368.21,4218.46,4458.46,4094.87,4030.26,4488.72,4266.15,3944.62,4651.79,4598.97,4336.92,1694,1687,6.596,0,0,0,0,0
87,4250.77,4686.15,4325.13,4368.21,4218.46,4463.59,4102.05,4035.38,4488.72,4266.15,3944.62,4650.77,4598.97,4348.72,1696,1683,6.604,0,0,0,0,0
88,4250.77,4686.15,4325.13,4368.21,4218.46,4465.13,4104.1,4036.92,4488.72,4266.67,3944.62,4649.23,4598.97,4348.21,1695,1681,6.612,0,0,0,0,0
89,4250.77,4686.15,4325.13,4368.21,4218.46,4458.97,4103.59,4036.41,4488.72,4265.64,3944.62,4650.26,4598.97,4333.85,1697,1679,6.619,0,0,0,0,0
90,4250.77,4686.15,4325.13,4368.21,4218.46,4460,4104.62,4038.46,4488.72,4266.67,3944.62,4650.77,4598.97,4332.82,1697,1677,6.627,0,0,0,0,0
91,4250.77,4686.15,4325.13,4368.21,4218.46,4472.82,4111.28,4046.67,4488.72,4270.26,3944.62,4648.21,4598.97,4354.36,1697,1677,6.635,0,0,0,0,0
92,4250.77,4686.15,4325.13,4368.21,4218.46,4480,4121.54,4058.97,4488.72,4273.85,3944.62,4648.72,4598.97,4363.08,1696,1676,6.643,0,0,0,0,0
93,4250.77,4686.15,4325.13,4368.21,4218.46,4477.44,4124.1,4061.54,4488.72,4273.33,3944.62,4650.26,4598.97,4348.21,1695,1676,6.651,0,0,0,0,0
94,4250.77,4686.15,4325.13,4368.21,4218.46,4476.41,4121.03,4054.87,4488.72,4271.28,3944.62,4649.74,4598.97,4348.21,1694,1677,6.658,0,0,0,0,0
95,4250.77,4686.15,4325.13,4368.21,4218.46,4476.41,4116.92,4050.77,4488.72,4273.33,3944.62,4649.23,4598.97,4359.49,1693,1679,6.666,0,0,0,0,0
96,4250.77,4686.15,4325.13,4368.21,4218.46,4475.9,4110.77,4049.23,4488.72,4278.97,3944.62,4650.26,4598.97,4356.41,1693,1680,6.674,0,0,0,0,0
97,4250.77,4686.15,4325.13,4368.21,4218.46,4473.33,4106.15,4042.56,4488.72,4281.03,3944.62,4649.74,4598.97,4347.69,1690,1684,6.682,0,0,0,0,0
98,4250.77,4686.15,4325.13,4368.21,4217.95,4463.08,4101.54,4028.72,4488.72,4276.92,3944.62,4648.72,4598.97,4346.67,1690,1684,6.69,0,0,0,0,0
99,4250.77,4686.15,4325.13,4368.21,4217.44,4454.87,4092.82,4020,4488.72,4272.31,3944.62,4651.79,4598.97,4350.77,1688,1687,6.698,0,0,0,0,0
100,4250.77,4686.15,4325.13,4368.21,4217.44,4457.95,4088.21,4023.59,4488.72,4272.82,3944.62,4656.41,4598.97,4351.79,1690,1688,6.705,0,0,0,0,0
101,4250.77,4686.15,4325.13,4368.21,4217.44,4461.54,4095.9,4032.31,4488.72,4273.33,3944.62,4654.87,4598.97,4347.18,1688,1688,6.713,0,0,0,0,0
102,4250.77,4686.15,4325.13,4368.21,4217.44,4459.49,4102.05,4033.33,4488.72,4272.82,3944.62,4654.36,4598.97,4344.1,1689,1690,6.721,0,0,0,0,0
103,4250.77,4686.15,4325.13,4368.21,4217.44,4461.03,4101.54,4037.95,4488.72,4271.79,3944.62,4655.9,4598.97,4348.21,1690,1689,6.729,0,0,0,0,0
104,4250.77,4686.15,4325.13,4368.21,4217.44,4469.23,4102.56,4043.59,4488.72,4272.31,3944.62,4653.85,4598.97,4354.87,1691,1688,6.737,0,0,0,0,0
105,4250.77,4686.67,4325.13,4368.21,4217.44,4474.36,4105.64,4040.51,4488.72,4272.31,3944.62,4648.72,4598.97,4356.92,1691,1687,6.744,0,0,0,0,0
106,4250.77,4686.15,4325.13,4368.21,4217.44,4473.33,4107.69,4035.38,4488.72,4272.31,3944.62,4648.72,4598.97,4356.41,1691,1687,6.752,0,0,0,0,0
107,4250.77,4686.67,4325.13,4368.21,4217.44,4472.82,4104.62,4031.28,4488.72,4272.31,3944.62,4650.26,4598.97,4359.49,1691,1686,6.76,0,0,0,0,0
108,4250.77,4688.21,4325.13,4368.21,4217.44,4473.33,4101.03,4028.21,4488.72,4272.31,3944.62,4649.74,4598.97,4354.87,1689,1685,6.768,0,0,0,0,0
109,4250.77,4688.21,4325.13,4368.21,4217.44,4466.67,4097.95,4028.21,4488.72,4272.31,3944.62,4649.23,4598.97,4343.08,1690,1684,6.776,0,0,0,0,0
110,4250.77,4687.18,4325.13,4368.21,4217.44,4461.54,4094.87,4026.15,4488.72,4272.31,3944.62,4649.74,4598.97,4347.18,1686,1684,6.784,0,0,0,0,0
111,4250.77,4687.18,4325.13,4368.21,4217.44,4462.05,4091.28,4020.51,4488.72,4272.31,3944.62,4649.74,4598.97,4358.46,1687,1683,6.791,0,0,0,0,0
112,4250.77,4687.18,4325.13,4368.21,4217.44,4460,4089.23,4014.87,4488.72,4272.31,3944.62,4649.23,4598.97,4357.95,1684,1682,6.799,0,0,0,0,0
113,4250.77,4687.18,4325.13,4368.21,4217.44,4456.92,4089.74,4012.82,4488.72,4272.31,3944.62,4650.26,4598.97,4358.97,1683,1683,6.807,0,0,0,0,0
114,4250.77,4687.18,4325.13,4368.21,4217.44,4457.44,4088.72,4014.87,4488.72,4271.79,3944.62,4649.23,4598.97,4360,1682,1682,6.815,0,0,0,0,0
115,4250.77,4687.18,4325.13,4368.21,4217.44,4458.46,4089.23,4019.49,4488.72,4272.31,3944.62,4649.23,4598.97,4354.87,1681,1684,6.823,0,0,0,0,0
116,4250.77,4687.18,4325.13,4368.21,4217.95,4457.95,4087.69,4018.46,4488.72,4271.79,3944.62,4654.36,4598.97,4360,1682,1684,6.83,0,0,0,0,0
117,4250.77,4687.18,4325.13,4368.21,4217.44,4456.92,4087.69,4022.05,4488.72,4269.74,3944.62,4657.44,4598.97,4372.31,1680,1684,6.838,0,0,0,0,0
118,4250.77,4687.18,4325.13,4368.21,4217.44,4460.51,4099.49,4036.92,4488.72,4275.9,3944.62,4651.79,4598.97,4375.38,1680,1684,6.846,0,0,0,0,0
119,4250.77,4687.18,4325.13,4368.21,4218.46,4470.77,4109.74,4046.67,4488.72,4278.97,3944.62,4648.21,4598.97,4372.82,1680,1685,6.854,0,0,0,0,0
120,4250.77,4687.18,4325.13,4368.21,4218.97,4478.97,4110.77,4047.18,4488.72,4271.79,3944.62,4649.23,4598.97,4366.67,1680,1685,6.862,0,0,0,0,0
121,4250.77,4687.18,4325.13,4368.21,4217.95,4477.95,4111.79,4047.18,4488.72,4269.23,3944.62,4648.21,4598.97,4361.54,1679,1685,6.87,0,0,0,0,0
122,4250.77,4687.18,4325.13,4368.21,4218.46,4476.41,4113.85,4046.67,4488.72,4272.82,3944.62,4649.74,4598.97,4357.44,1680,1684,6.877,0,0,0,0,0
123,4250.77,4687.69,4325.13,4368.21,4218.46,4477.95,4109.74,4042.05,4488.72,4272.31,3944.62,4655.38,4598.97,4349.74,1680,1684,6.885,0,0,0,0,0
124,4250.77,4688.21,4325.13,4368.21,4217.95,4472.82,4101.03,4036.92,4488.72,4277.95,3944.62,4656.41,4598.97,4349.23,1681,1683,6.893,0,0,0,0,0
125,4250.77,4688.21,4325.13,4368.21,4218.46,4463.08,4093.85,4030.26,4488.72,4283.59,3944.62,4653.33,4598.97,4353.33,1680,1684,6.901,0,0,0,0,0
126,4250.77,4687.69,4325.13,4368.21,4217.95,4457.95,4090.26,4021.54,4488.72,4273.33,3944.62,4652.82,4598.97,4352.31,1680,1683,6.909,0,0,0,0,0
127,4250.77,4687.18,4325.13,4368.21,4215.9,4459.49,4092.82,4018.97,4488.72,4267.18,3944.62,4653.85,4598.97,4357.44,1681,1685,6.916,0,0,0,0,0
128,4250.77,4687.18,4325.13,4368.21,4216.41,4460.51,4093.33,4021.54,4488.72,4273.85,3944.62,4653.33,4598.97,4366.67,1682,1685,6.924,0,0,0,0,0
0,4250.77,4687.18,4325.13,4368.21,4217.95,4456.41,4088.21,4018.46,4488.72,4274.36,3944.62,4652.31,4598.97,4367.18,1679,1686,6.932,0,0,0,0,0
1,4250.77,4687.18,4325.13,4368.21,4217.44,4455.9,4087.69,4019.49,4488.72,4271.28,3944.62,4653.33,4598.97,4368.21,1680,1688,6.94,0,0,0,0,0
2,4250.77,4687.18,4325.13,4368.21,4216.92,4459.49,4092.31,4025.64,4488.72,4272.31,3944.62,4653.33,4598.97,4373.33,1677,1687,6.948,0,0,0,0,0
3,4250.77,4687.18,4325.13,4368.21,4217.44,4461.54,4092.31,4025.13,4488.72,4274.36,3944.62,4650.26,4598.97,4375.38,1677,1689,6.957,0,0,0,0,0
4,4250.77,4688.72,4325.13,4368.21,4217.44,4463.59,4092.31,4023.59,4488.72,4273.85,3944.62,4649.23,4598.97,4380,1677,1687,6.963,0,0,0,0,0
5,4250.77,4688.21,4325.13,4368.21,4217.44,4470.26,4100.51,4028.21,4488.72,4273.85,3944.62,4650.77,4598.97,4381.54,1676,1689,6.972,0,0,0,0,0
6,4250.77,4686.15,4325.13,4368.21,4217.44,4478.46,4108.72,4037.95,4488.72,4271.79,3944.62,4651.28,4598.97,4371.79,1676,1687,6.979,0,0,0,0,0
7,4250.77,4686.15,4325.13,4368.21,4217.44,4476.41,4112.82,4048.72,4488.72,4272.31,3944.62,4650.77,4598.97,4360.51,1677,1687,6.988,0,0,0,0,0
8,4250.77,4687.18,4325.13,4368.21,4217.44,4466.15,4104.1,4041.54,4488.72,4273.33,3944.62,4650.77,4598.97,4351.28,1678,1685,6.996,0,0,0,0,0
9,4250.77,4687.18,4325.13,4368.21,4217.44,4455.38,4086.15,4021.03,4488.72,4273.33,3944.62,4651.28,4598.97,4351.79,1678,1685,7.003,0,0,0,0,0
10,4250.77,4687.18,4325.13,4368.21,4217.44,4449.74,4077.95,4015.38,4488.72,4273.33,3944.62,4651.28,4598.97,4358.46,1680,1683,7.01,0,0,0,0,0
11,4250.77,4687.18,4325.13,4368.21,4217.44,4447.18,4078.97,4014.87,4488.72,4273.33,3944.62,4649.74,4598.97,4352.31,1679,1681,7.019,0,0,0,0,0
12,4250.77,4687.18,4325.13,4368.21,4217.44,4443.59,4072.82,4001.03,4488.72,4275.38,3944.62,4651.79,4598.97,4337.44,1681,1681,7.027,0,0,0,0,0
13,4250.77,4687.18,4325.13,4368.21,4217.44,4442.05,4070.26,4000.51,4488.72,4281.03,3944.62,4655.38,4598.97,4331.28,1681,1679,7.035,0,0,0,0,0
14,4250.77,4687.18,4325.13,4368.21,4217.44,4447.69,4081.54,4016.41,4488.72,4281.03,3944.62,4651.28,4598.97,4336.41,1681,1680,7.043,0,0,0,0,0
15,4250.77,4687.18,4325.13,4368.21,4217.44,4455.9,4089.23,4023.08,4488.72,4269.74,3944.62,4647.69,4598.97,4348.72,1683,1679,7.05,0,0,0,0,0
16,4250.77,4687.18,4325.13,4368.21,4216.92,4458.46,4089.74,4025.13,4488.72,4266.67,3944.62,4652.82,4598.97,4358.46,1682,1681,7.058,0,0,0,0,0
17,4250.77,4687.18,4325.13,4368.21,4217.44,4457.44,4091.79,4034.87,4488.72,4276.92,3944.62,4653.33,4598.97,4360,1683,1681,7.066,0,0,0,0,0
18,4250.77,4687.18,4325.13,4368.21,4218.97,4458.97,4097.44,4040.51,4488.72,4278.46,3944.62,4648.21,4598.97,4357.95,1684,1682,7.074,0,0,0,0,0
19,4250.77,4687.18,4325.13,4368.21,4219.49,4458.46,4098.97,4037.44,4488.72,4275.9,3944.62,4652.82,4598.97,4356.41,1684,1683,7.082,0,0,0,0,0
20,4250.77,4687.18,4325.13,4368.21,4218.97,4460,4099.49,4034.87,4488.72,4275.38,3944.62,4658.46,4598.97,4362.56,1685,1685,7.09,0,0,0,0,0
21,4250.77,4687.18,4325.13,4368.21,4218.97,4470.26,4104.62,4033.33,4488.72,4270.26,3944.62,4652.82,4598.97,4370.77,1687,1687,7.097,0,0,0,0,0
22,4250.77,4687.18,4325.13,4368.21,4219.49,4476.41,4108.72,4031.28,4488.72,4269.23,3944.62,4647.18,4598.97,4365.13,1687,1688,7.105,0,0,0,0,0
23,4250.77,4687.18,4325.13,4368.21,4219.49,4473.85,4108.21,4036.92,4488.72,4274.36,3944.62,4648.72,4598.97,4368.21,1690,1690,7.113,0,0,0,0,0
24,4250.77,4687.18,4325.13,4368.21,4219.49,4473.33,4107.18,4047.18,4488.72,4273.33,3944.62,4652.82,4598.97,4381.03,1690,1690,7.121,0,0,0,0,0
25,4250.77,4688.21,4325.13,4368.21,4218.97,4477.44,4108.21,4047.18,4488.72,4271.79,3944.62,4656.92,4598.97,4373.33,1690,1693,7.129,0,0,0,0,0
26,4250.77,4688.72,4325.13,4368.21,4219.49,4473.85,4104.62,4039.49,4488.72,4273.33,3944.62,4654.87,4598.97,4362.05,1693,1691,7.136,0,0,0,0,0
27,4250.77,4689.23,4325.13,4368.21,4218.97,4463.08,4093.85,4034.36,4488.72,4271.79,3944.62,4649.23,4598.97,4366.67,1692,1690,7.144,0,0,0,0,0
28,4250.77,4689.23,4325.13,4368.21,4217.44,4458.97,4088.21,4027.69,4488.72,4277.44,3944.62,4649.23,4598.97,4366.67,1694,1688,7.152,0,0,0,0,0
29,4250.77,4687.69,4325.13,4368.21,4216.41,4460.51,4091.28,4019.49,4488.72,4278.97,3944.62,4651.79,4598.97,4349.23,1693,1686,7.16,0,0,0,0,0
30,4250.77,4685.64,4325.13,4368.21,4216.92,4461.03,4093.85,4017.95,4488.72,4269.23,3944.62,4649.74,4598.97,4335.9,1694,1685,7.168,0,0,0,0,0
31,4250.77,4686.15,4325.13,4368.21,4216.41,4461.03,4095.38,4028.21,4488.72,4267.18,3944.62,4648.21,4598.97,4344.62,1695,1682,7.176,0,0,0,0,0
32,4250.77,4687.69,4325.13,4368.21,4215.9,4462.56,4101.03,4040.51,4488.72,4278.46,3944.62,4649.74,4598.97,4362.56,1696,1680,7.183,0,0,0,0,0
33,4250.77,4687.18,4325.13,4368.21,4216.41,4462.56,4107.69,4050.26,4488.72,4278.97,3944.62,4650.26,4598.97,4369.74,1695,1678,7.191,0,0,0,0,0
34,4250.77,4687.18,4325.13,4368.21,4216.41,4462.56,4109.74,4054.36,4488.72,4269.74,3944.62,4649.74,4598.97,4367.69,1697,1678,7.199,0,0,0,0,0
35,4250.77,4687.18,4325.13,4368.21,4216.41,4461.54,4103.08,4046.15,4488.72,4275.38,3944.62,4649.74,4598.97,4366.67,1697,1677,7.207,0,0,0,0,0
36,4250.77,4687.18,4325.13,4368.21,4216.41,4458.46,4094.36,4036.92,4488.72,4281.54,3944.62,4649.74,4598.97,4368.72,1695,1679,7.215,0,0,0,0,0
37,4250.77,4687.18,4325.13,4368.21,4216.41,4456.92,4094.87,4036.41,4488.72,4274.36,3944.62,4649.74,4598.97,4376.92,1696,1679,7.222,0,0,0,0,0
38,4250.77,4687.18,4325.13,4368.21,4215.9,4457.95,4098.97,4037.95,4488.72,4274.36,3944.62,4650.26,4598.97,4384.1,1694,1681,7.23,0,0,0,0,0
39,4250.77,4687.18,4325.13,4368.21,4216.92,4460,4102.05,4038.97,4488.72,4281.54,3944.62,4649.23,4598.97,4381.03,1694,1683,7.238,0,0,0,0,0
40,4250.77,4687.18,4325.13,4368.21,4218.46,4461.54,4106.15,4043.08,4488.72,4272.31,3944.62,4649.23,4598.97,4375.38,1691,1684,7.246,0,0,0,0,0
41,4250.77,4687.18,4325.13,4368.21,4218.46,4460,4105.13,4039.49,4488.72,4262.05,3944.62,4652.31,4598.97,4374.87,1690,1686,7.254,0,0,0,0,0
42,4250.77,4687.18,4325.13,4368.21,4217.44,4457.44,4097.44,4033.33,4488.72,4274.36,3944.62,4652.82,4598.97,4380,1689,1685,7.262,0,0,0,0,0
43,4250.77,4687.18,4325.13,4368.21,4217.44,4456.92,4095.9,4035.38,4488.72,4281.03,3944.62,4649.23,4598.97,4388.72,1689,1686,7.269,0,0,0,0,0
44,4250.77,4687.18,4325.13,4368.21,4217.95,4456.41,4099.49,4038.46,4488.72,4271.79,3944.62,4648.72,4598.97,4392.82,1689,1685,7.277,0,0,0,0,0
45,4250.77,4687.18,4325.13,4368.21,4217.44,4455.9,4095.38,4034.36,4488.72,4264.1,3944.62,4649.74,4598.97,4385.64,1689,1685,7.285,0,0,0,0,0
46,4250.77,4687.18,4325.13,4368.21,4217.44,4455.9,4092.31,4029.74,4488.72,4265.64,3944.62,4649.23,4598.97,4374.87,1691,1685,7.293,0,0,0,0,0
47,4250.77,4687.18,4325.13,4368.21,4217.44,4458.46,4102.56,4033.85,4488.72,4273.85,3944.62,4650.77,4598.97,4371.79,1692,1684,7.301,0,0,0,0,0
48,4250.77,4687.18,4325.13,4368.21,4217.44,4461.03,4110.26,4044.1,4488.72,4278.97,3944.62,4651.79,4598.97,4372.82,1691,1683,7.308,0,0,0,0,0
49,4250.77,4687.18,4325.13,4368.21,4217.44,4461.03,4107.69,4051.28,4488.72,4281.54,3944.62,4649.23,4598.97,4372.82,1690,1684,7.316,0,0,0,0,0
50,4250.77,4687.18,4325.13,4368.21,4217.44,4460.51,4103.59,4048.21,4488.72,4277.95,3944.62,4649.74,4598.97,4377.44,1690,1683,7.324,0,0,0,0,0
51,4250.77,4687.69,4325.13,4368.21,4217.44,4458.97,4100,4040.51,4488.72,4270.77,3944.62,4652.31,4598.97,4385.13,1689,1684,7.332,0,0,0,0,0
52,4250.77,4689.23,4325.13,4368.21,4217.44,4458.97,4097.44,4037.44,4488.72,4266.67,3944.62,4651.28,4598.97,4383.59,1688,1685,7.34,0,0,0,0,0
53,4250.77,4689.23,4325.13,4368.21,4217.44,4461.54,4098.97,4035.9,4488.72,4266.67,3944.62,4646.67,4598.97,4376.92,1687,1686,7.348,0,0,0,0,0
54,4250.77,4687.18,4325.13,4368.21,4217.44,4461.03,4094.36,4025.64,4488.72,4267.69,3944.62,4650.26,4598.97,4375.9,1685,1686,7.355,0,0,0,0,0
55,4250.77,4686.15,4325.13,4368.21,4217.44,4456.92,4087.69,4017.95,4488.72,4267.18,3944.62,4656.92,4598.97,4374.36,1683,1688,7.363,0,0,0,0,0
56,4250.77,4686.15,4325.13,4368.21,4217.44,4456.41,4090.26,4018.97,4488.21,4268.21,3944.62,4652.31,4598.97,4375.38,1684,1686,7.371,0,0,0,0,0
57,4250.77,4686.67,4325.13,4368.21,4217.44,4459.49,4091.28,4012.31,4489.74,4267.18,3944.62,4648.21,4598.97,4380.51,1681,1688,7.379,0,0,0,0,0
58,4250.77,4688.21,4325.13,4368.21,4217.44,4459.49,4089.74,4006.15,4490.77,4273.33,3944.62,4654.87,4598.97,4374.36,1683,1688,7.387,0,0,0,0,0
59,4250.77,4688.72,4325.13,4368.21,4217.44,4458.97,4092.31,4014.87,4488.21,4281.54,3944.62,4656.41,4598.97,4367.69,1681,1686,7.394,0,0,0,0,0
60,4250.77,4688.21,4325.13,4368.21,4217.44,4461.03,4094.87,4022.05,4487.18,4276.92,3944.62,4649.23,4598.97,4375.38,1682,1686,7.402,0,0,0,0,0
61,4250.77,4687.18,4325.13,4368.21,4217.44,4461.03,4091.28,4021.54,4488.72,4270.77,3944.62,4647.69,4598.97,4381.54,1681,1684,7.41,0,0,0,0,0
62,4250.77,4687.18,4325.13,4368.21,4217.44,4457.95,4090.26,4026.15,4488.72,4272.31,3944.62,4650.26,4598.97,4369.74,1682,1684,7.418,0,0,0,0,0
63,4250.77,4687.18,4325.13,4368.21,4217.44,4463.59,4098.46,4030.77,4488.21,4274.36,3944.62,4648.72,4598.97,4362.05,1682,1683,7.426,0,0,0,0,0
64,4250.77,4687.18,4325.13,4368.21,4217.44,4474.87,4104.1,4029.74,4488.72,4271.28,3944.62,4648.21,4598.97,4372.31,1682,1684,7.434,0,0,0,0,0
65,4250.77,4687.18,4325.13,4368.21,4217.44,4476.41,4098.97,4028.72,4488.72,4267.69,3944.62,4648.72,4598.97,4386.67,1682,1682,7.441,0,0,0,0,0
66,4250.77,4687.18,4325.13,4368.21,4217.44,4470.77,4095.38,4028.72,4488.72,4267.18,3944.62,4648.72,4598.97,4378.97,1681,1683,7.449,0,0,0,0,0
67,4250.77,4687.18,4325.13,4368.21,4217.44,4474.36,4098.97,4030.77,4488.72,4266.67,3944.62,4649.23,4598.97,4357.44,1682,1682,7.457,0,0,0,0,0
68,4250.77,4687.18,4325.13,4368.21,4217.44,4474.36,4096.92,4028.72,4488.72,4266.67,3944.62,4651.28,4598.97,4362.56,1681,1683,7.465,0,0,0,0,0
69,4250.77,4687.18,4325.13,4368.21,4217.44,4463.08,4088.21,4017.95,4488.72,4267.69,3944.62,4650.77,4598.97,4386.15,1682,1683,7.473,0,0,0,0,0
70,4250.77,4686.15,4325.13,4368.21,4217.44,4458.46,4087.18,4012.31,4488.72,4268.72,3944.62,4650.77,4598.97,4387.18,1681,1683,7.48,0,0,0,0,0
71,4250.77,4685.64,4325.13,4368.21,4217.44,4458.97,4089.74,4016.92,4488.72,4267.69,3944.62,4653.33,4598.97,4374.36,1682,1685,7.488,0,0,0,0,0
72,4250.77,4687.18,4325.13,4368.21,4217.44,4460,4090.26,4023.59,4488.72,4270.77,3944.62,4652.31,4598.97,4372.31,1683,1684,7.496,0,0,0,0,0
73,4250.77,4688.72,4325.13,4368.21,4217.44,4469.23,4093.33,4028.72,4488.72,4273.85,3944.62,4649.23,4598.97,4374.36,1682,1686,7.504,0,0,0,0,0
74,4250.77,4689.23,4325.13,4368.21,4217.44,4476.92,4098.46,4027.69,4488.72,4273.33,3944.62,4648.72,4598.97,4375.9,1682,1686,7.512,0,0,0,0,0
75,4250.77,4689.23,4325.13,4368.21,4217.44,4473.85,4095.9,4021.54,4488.72,4272.82,3944.62,4648.72,4598.97,4380,1681,1686,7.52,0,0,0,0,0
76,4250.77,4688.72,4325.13,4368.21,4217.44,4470.77,4089.23,4020.51,4488.72,4272.31,3944.62,4651.28,4598.97,4376.41,1681,1686,7.527,0,0,0,0,0
77,4250.77,4689.23,4325.13,4368.21,4217.44,4472.82,4090.77,4028.21,4488.72,4269.74,3944.62,4654.36,4598.97,4367.18,1679,1687,7.535,0,0,0,0,0
78,4250.77,4689.23,4325.13,4368.21,4217.44,4473.85,4101.54,4035.9,4488.72,4267.69,3944.62,4651.28,4598.97,4365.13,1680,1685,7.543,0,0,0,0,0
79,4250.77,4687.69,4325.13,4368.21,4217.44,4474.87,4107.69,4038.97,4488.72,4268.72,3944.62,4648.21,4598.97,4366.67,1678,1685,7.551,0,0,0,0,0
80,4250.77,4685.64,4325.13,4368.21,4217.44,4474.36,4102.56,4035.9,4488.72,4267.69,3944.62,4652.31,4598.97,4366.67,1681,1685,7.559,0,0,0,0,0
81,4250.77,4686.15,4325.13,4368.21,4217.44,4475.9,4095.9,4030.26,4488.72,4266.67,3944.62,4653.85,4598.97,4366.67,1680,1683,7.566,0,0,0,0,0
82,4250.77,4687.18,4325.13,4368.21,4217.44,4470.77,4092.82,4027.69,4488.72,4266.67,3944.62,4652.31,4598.97,4359.49,1681,1683,7.574,0,0,0,0,0
83,4250.77,4687.18,4325.13,4368.21,4217.44,4460,4090.77,4026.67,4488.72,4268.21,3944.62,4652.82,4598.97,4356.92,1682,1681,7.582,0,0,0,0,0
84,4250.77,4687.18,4325.13,4368.21,4217.44,4462.56,4095.38,4028.21,4488.72,4266.15,3944.62,4653.33,4598.97,4371.28,1682,1682,7.59,0,0,0,0,0
85,4250.77,4687.18,4325.13,4368.21,4217.44,4475.9,4104.62,4038.46,4488.72,4266.67,3944.62,4652.82,4598.97,4378.46,1684,1680,7.598,0,0,0,0,0
86,4250.77,4687.18,4325.13,4368.21,4217.44,4474.36,4107.69,4044.62,4489.23,4275.38,3944.62,4654.36,4598.97,4365.64,1683,1680,7.606,0,0,0,0,0
87,4250.77,4687.18,4325.13,4368.21,4217.44,4462.56,4103.59,4037.44,4489.23,4278.97,3944.62,4655.9,4598.97,4362.05,1685,1680,7.613,0,0,0,0,0
88,4250.77,4687.18,4325.13,4368.21,4217.44,4460,4098.46,4033.85,4488.72,4274.87,3944.62,4655.9,4598.97,4377.95,1684,1680,7.621,0,0,0,0,0
89,4250.77,4687.18,4325.13,4368.21,4217.44,4461.54,4096.41,4037.95,4487.69,4278.97,3944.62,4656.41,4598.97,4385.13,1685,1679,7.629,0,0,0,0,0
90,4250.77,4687.18,4325.13,4368.21,4217.44,4457.95,4093.85,4029.23,4487.69,4280,3944.62,4655.38,4598.97,4372.82,1683,1680,7.637,0,0,0,0,0
91,4250.77,4687.18,4325.13,4368.21,4217.44,4455.9,4088.21,4016.92,4488.21,4271.28,3944.62,4655.9,4598.97,4363.08,1685,1681,7.645,0,0,0,0,0
92,4250.77,4687.18,4325.13,4368.21,4217.44,4457.44,4086.15,4017.95,4488.72,4269.23,3944.62,4657.44,4598.97,4372.31,1684,1681,7.653,0,0,0,0,0
93,4250.77,4687.18,4325.13,4368.21,4217.44,4457.95,4089.74,4022.56,4488.72,4273.33,3944.62,4652.82,4598.97,4392.31,1685,1684,7.66,0,0,0,0,0
94,4250.77,4687.18,4325.13,4368.21,4217.95,4456.92,4092.82,4029.74,4488.72,4271.28,3944.62,4651.28,4598.97,4389.23,1686,1684,7.668,0,0,0,0,0
95,4250.77,4687.18,4325.13,4368.21,4217.95,4460,4093.33,4037.44,4488.72,4270.77,3944.62,4653.33,4598.97,4371.28,1686,1687,7.676,0,0,0,0,0
96,4250.77,4687.18,4325.13,4368.21,4217.44,4460.51,4091.28,4030.26,4488.72,4273.33,3944.62,4652.82,4598.97,4381.54,1687,1687,7.684,0,0,0,0,0
97,4250.77,4687.18,4325.13,4368.21,4217.95,4457.95,4091.28,4018.46,4488.72,4272.31,3944.62,4651.79,4598.97,4400.51,1688,1689,7.692,0,0,0,0,0
98,4250.77,4687.18,4325.13,4368.21,4218.46,4463.59,4100.51,4025.13,4488.72,4271.28,3944.62,4652.31,4598.97,4392.82,1689,1691,7.699,0,0,0,0,0
99,4250.77,4687.18,4325.13,4368.21,4217.95,4473.33,4109.23,4037.44,4488.72,4271.79,3944.62,4651.28,4598.97,4382.05,1689,1691,7.707,0,0,0,0,0
100,4250.77,4687.18,4325.13,4368.21,4216.92,4474.87,4108.72,4037.44,4488.72,4271.79,3944.62,4649.23,4598.97,4390.77,1691,1690,7.715,0,0,0,0,0
101,4250.77,4687.18,4325.13,4368.21,4216.41,4471.28,4103.59,4033.85,4488.72,4271.79,3944.62,4649.74,4598.97,4400.51,1690,1689,7.723,0,0,0,0,0
102,4250.77,4687.18,4325.13,4368.21,4216.41,4472.31,4102.56,4034.87,4488.72,4271.79,3944.62,4650.26,4598.97,4388.21,1693,1686,7.731,0,0,0,0,0
103,4250.77,4687.18,4325.13,4368.21,4216.41,4475.38,4106.15,4036.92,4488.72,4271.79,3944.62,4650.77,4598.97,4373.85,1693,1685,7.739,0,0,0,0,0
104,4250.77,4687.18,4325.13,4368.21,4217.44,4474.87,4105.64,4035.9,4488.72,4271.28,3944.62,4650.26,4598.97,4384.62,1695,1683,7.746,0,0,0,0,0
105,4250.77,4687.18,4325.13,4368.21,4217.44,4473.33,4101.03,4030.26,4488.72,4271.28,3944.62,4651.79,4598.97,4403.08,1695,1681,7.754,0,0,0,0,0
106,4250.77,4687.18,4325.13,4368.21,4217.44,4473.33,4096.92,4027.18,4488.72,4272.82,3944.62,4655.9,4598.97,4395.38,1696,1679,7.762,0,0,0,0,0
107,4250.77,4687.18,4325.13,4368.21,4217.44,4473.85,4097.95,4028.21,4488.72,4270.77,3944.62,4653.33,4598.97,4377.95,1696,1678,7.77,0,0,0,0,0
108,4250.77,4686.67,4325.13,4368.21,4217.44,4472.82,4101.54,4028.72,4488.72,4270.77,3944.62,4647.69,4598.97,4382.05,1697,1678,7.778,0,0,0,0,0
109,4250.77,4687.69,4325.13,4368.21,4217.44,4475.38,4105.64,4031.79,4488.72,4278.97,3944.62,4647.69,4598.97,4393.85,1695,1678,7.785,0,0,0,0,0
110,4250.77,4688.72,4325.13,4368.21,4217.44,4475.9,4105.13,4036.92,4488.72,4280.51,3944.62,4652.82,4598.97,4397.95,1695,1679,7.793,0,0,0,0,0
111,4250.77,4687.69,4325.13,4368.21,4217.44,4465.64,4099.49,4037.95,4488.72,4271.28,3944.62,4655.38,4598.97,4400,1693,1680,7.801,0,0,0,0,0
112,4250.77,4686.15,4325.13,4368.21,4217.44,4457.95,4095.9,4035.9,4488.72,4269.23,3944.62,4653.85,4598.97,4397.44,1692,1683,7.809,0,0,0,0,0
113,4250.77,4686.67,4325.13,4368.21,4217.44,4467.69,4100.51,4036.41,4488.72,4272.31,3944.62,4654.87,4598.97,4391.79,1692,1682,7.817,0,0,0,0,0
114,4250.77,4687.18,4325.13,4368.21,4217.44,4475.9,4106.15,4039.49,4488.72,4271.28,3944.62,4655.38,4598.97,4388.72,1690,1685,7.825,0,0,0,0,0
115,4250.77,4686.15,4325.13,4368.21,4217.44,4465.64,4105.13,4042.56,4488.72,4273.85,3944.62,4651.28,4598.97,4394.87,1691,1686,7.832,0,0,0,0,0
116,4250.77,4686.67,4325.13,4368.21,4217.44,4460,4102.56,4043.59,4489.74,4277.44,3944.62,4653.33,4598.97,4403.59,1690,1686,7.84,0,0,0,0,0
117,4250.77,4686.67,4325.13,4368.21,4217.44,4470.77,4107.69,4045.13,4490.26,4276.92,3944.62,4656.41,4598.97,4400,1691,1687,7.848,0,0,0,0,0
118,4250.77,4685.64,4325.13,4368.21,4217.44,4476.41,4112.82,4046.15,4490.77,4276.92,3944.62,4651.79,4598.97,4385.64,1690,1688,7.856,0,0,0,0,0
119,4250.77,4686.15,4325.13,4368.21,4217.44,4475.38,4112.82,4043.59,4490.26,4274.87,3944.62,4646.67,4598.97,4375.9,1692,1688,7.864,0,0,0,0,0
120,4250.77,4687.69,4325.13,4368.21,4217.44,4477.44,4112.82,4042.56,4490.26,4271.28,3944.62,4649.23,4598.97,4379.49,1692,1688,7.871,0,0,0,0,0
121,4250.77,4686.67,4325.13,4368.21,4217.44,4477.44,4112.31,4046.15,4490.77,4271.79,3944.62,4654.36,4598.97,4385.64,1692,1688,7.879,0,0,0,0,0
122,4250.77,4686.15,4325.13,4368.21,4217.44,4474.87,4106.15,4044.62,4489.23,4272.82,3944.62,4654.87,4598.97,4385.64,1691,1687,7.887,0,0,0,0,0
123,4250.77,4687.18,4325.13,4368.21,4217.44,4471.79,4098.97,4035.9,4487.18,4271.79,3944.62,4650.77,4598.97,4378.46,1690,1688,7.895,0,0,0,0,0
124,4250.77,4687.69,4325.13,4368.21,4217.44,4462.56,4095.38,4031.79,4487.69,4271.79,3944.62,4648.72,4598.97,4369.74,1690,1685,7.903,0,0,0,0,0
125,4250.77,4687.18,4325.13,4368.21,4217.44,4462.56,4095.9,4035.38,4488.72,4271.79,3944.62,4651.28,4598.97,4375.9,1688,1687,7.911,0,0,0,0,0
126,4250.77,4687.69,4325.13,4368.21,4217.44,4472.31,4097.95,4036.41,4488.72,4272.82,3944.62,4653.85,4598.97,4392.31,1688,1686,7.917,0,0,0,0,0
127,4250.77,4687.18,4325.13,4368.21,4217.44,4470.26,4096.92,4032.31,4488.21,4273.33,3944.62,4656.41,4598.97,4398.97,1686,1685,7.925,0,0,0,0,0
128,4250.77,4687.18,4325.13,4368.21,4217.44,4462.56,4092.82,4025.64,4488.72,4272.31,3944.62,4656.92,4598.97,4387.18,1686,1686,7.933,0,0,0,0,0
0,4250.77,4686.67,4325.13,4368.21,4217.44,4463.08,4090.77,4020,4488.72,4274.87,3944.62,4649.74,4598.97,4371.28,1685,1685,7.941,0,0,0,0,0
1,4250.77,4686.15,4325.13,4368.21,4217.44,4462.56,4089.74,4017.95,4488.72,4282.56,3944.62,4648.72,4598.97,4373.33,1684,1685,7.949,0,0,0,0,0
2,4250.77,4686.15,4325.13,4368.21,4217.44,4457.95,4086.67,4018.46,4488.21,4282.56,3944.62,4653.85,4598.97,4379.49,1683,1686,7.956,0,0,0,0,0
3,4250.77,4686.67,4325.13,4368.21,4217.44,4458.46,4088.72,4025.64,4489.23,4271.28,3944.62,4652.31,4598.97,4382.56,1682,1686,7.964,0,0,0,0,0
4,4250.77,4686.15,4325.13,4368.21,4217.44,4459.49,4094.87,4036.92,4490.77,4266.15,3944.62,4647.69,4598.97,4389.23,1681,1684,7.972,0,0,0,0,0
5,4250.77,4686.67,4325.13,4368.21,4217.44,4459.49,4093.85,4035.38,4490.77,4271.79,3944.62,4649.23,4598.97,4394.87,1680,1685,7.981,0,0,0,0,0
6,4250.77,4688.72,4325.13,4368.21,4217.44,4460,4091.28,4027.18,4490.26,4272.82,3944.62,4649.74,4598.97,4403.59,1681,1683,7.989,0,0,0,0,0
7,4250.77,4688.21,4325.13,4368.21,4217.44,4458.97,4092.31,4032.31,4490.26,4269.74,3944.62,4647.69,4598.97,4414.36,1679,1682,7.997,0,0,0,0,0
8,4250.77,4686.67,4325.13,4368.21,4217.44,4456.92,4088.72,4038.46,4490.26,4271.28,3944.62,4648.72,4598.97,4414.87,1681,1682,8.004,0,0,0,0,0
9,4250.77,4686.67,4325.13,4368.21,4217.44,4457.44,4089.74,4036.41,4490.77,4272.82,3944.62,4649.23,4598.97,4396.92,1681,1681,8.012,0,0,0,0,0
10,4250.77,4686.67,4325.13,4368.21,4217.44,4461.54,4101.03,4044.1,4490.26,4270.26,3944.62,4649.23,4598.97,4385.64,1682,1682,8.02,0,0,0,0,0
11,4250.77,4686.15,4325.13,4368.21,4217.44,4461.54,4106.67,4052.82,4489.23,4269.74,3944.62,4651.28,4598.97,4397.95,1682,1681,8.028,0,0,0,0,0
12,4250.77,4686.67,4325.13,4368.21,4217.44,4464.62,4103.59,4044.62,4488.21,4270.77,3944.62,4650.77,4598.97,4406.15,1682,1683,8.036,0,0,0,0,0
13,4250.77,4687.69,4325.13,4368.21,4217.44,4472.31,4102.56,4034.36,4488.72,4271.79,3944.62,4649.74,4598.97,4398.46,1683,1683,8.043,0,0,0,0,0
14,4250.77,4687.69,4325.13,4368.21,4217.44,4468.72,4099.49,4033.33,4488.72,4271.28,3944.62,4650.77,4598.97,4393.85,1682,1685,8.051,0,0,0,0,0
15,4250.77,4687.18,4325.13,4368.21,4217.44,4460,4095.38,4034.87,4488.72,4271.28,3944.62,4651.28,4598.97,4397.95,1682,1686,8.059,0,0,0,0,0
16,4250.77,4687.18,4325.13,4368.21,4217.44,4466.67,4100,4035.9,4488.72,4272.31,3944.62,4648.21,4598.97,4393.85,1682,1688,8.067,0,0,0,0,0
17,4250.77,4686.67,4325.13,4368.21,4217.44,4475.9,4104.1,4035.38,4488.72,4272.82,3944.62,4650.77,4598.97,4378.46,1682,1688,8.075,0,0,0,0,0
18,4250.77,4686.67,4325.13,4368.21,4217.44,4475.38,4105.13,4036.41,4488.72,4271.28,3944.62,4653.33,4598.97,4372.82,1679,1689,8.083,0,0,0,0,0
19,4250.77,4686.67,4325.13,4368.21,4217.44,4475.38,4110.26,4043.08,4488.72,4270.26,3944.62,4652.31,4598.97,4385.13,1681,1688,8.09,0,0,0,0,0
20,4250.77,4686.67,4325.13,4368.21,4217.44,4476.92,4111.79,4047.69,4488.72,4270.26,3944.62,4653.85,4598.97,4397.44,1679,1688,8.098,0,0,0,0,0
21,4250.77,4686.67,4325.13,4368.21,4217.44,4473.85,4108.21,4046.67,4488.72,4270.26,3944.62,4657.44,4598.97,4391.79,1680,1689,8.105,0,0,0,0,0
22,4250.77,4686.67,4325.13,4368.21,4217.44,4471.79,4104.1,4045.13,4488.72,4269.74,3944.62,4655.9,4598.97,4376.92,1679,1687,8.113,0,0,0,0,0
23,4250.77,4686.67,4325.13,4368.21,4217.44,4473.33,4101.54,4042.05,4488.72,4271.28,3944.62,4655.38,4598.97,4366.67,1680,1687,8.121,0,0,0,0,0
24,4250.77,4686.67,4325.13,4368.21,4217.44,4469.74,4097.95,4037.44,4488.72,4270.77,3944.62,4655.9,4598.97,4366.15,1680,1686,8.13,0,0,0,0,0
25,4250.77,4686.67,4325.13,4368.21,4217.44,4461.54,4096.92,4033.85,4488.72,4268.72,3944.62,4651.28,4598.97,4376.41,1681,1685,8.137,0,0,0,0,0
26,4250.77,4686.67,4325.13,4368.21,4217.44,4464.62,4101.54,4038.97,4488.72,4276.41,3944.62,4647.18,4598.97,4389.23,1682,1684,8.145,0,0,0,0,0
27,4250.77,4686.67,4325.13,4368.21,4217.44,4470.77,4103.59,4044.62,4488.72,4282.56,3944.62,4648.72,4598.97,4387.18,1681,1684,8.153,0,0,0,0,0
28,4250.77,4686.67,4325.13,4368.21,4217.44,4464.62,4099.49,4039.49,4488.72,4272.82,3944.62,4649.23,4598.97,4373.85,1683,1681,8.161,0,0,0,0,0
29,4250.77,4686.67,4325.13,4368.21,4217.44,4458.97,4096.92,4033.33,4488.72,4266.67,3944.62,4648.72,4598.97,4373.85,1682,1681,8.169,0,0,0,0,0
30,4250.77,4686.67,4325.13,4368.21,4217.44,4462.05,4098.97,4036.41,4488.72,4272.31,3944.62,4649.23,4598.97,4389.23,1683,1680,8.176,0,0,0,0,0
31,4250.77,4686.67,4325.13,4368.21,4217.44,4462.05,4097.44,4039.49,4488.72,4273.33,3944.62,4653.85,4598.97,4390.26,1683,1680,8.184,0,0,0,0,0
32,4250.77,4686.67,4325.13,4368.21,4217.44,4460.51,4092.82,4032.31,4488.72,4270.77,3944.62,4656.92,4598.97,4378.46,1683,1679,8.192,0,0,0,0,0
33,4250.77,4687.18,4325.13,4368.21,4217.44,4461.03,4092.31,4026.15,4489.23,4273.85,3944.62,4652.82,4598.97,4377.44,1682,1680,8.2,0,0,0,0,0
34,4250.77,4688.72,4325.13,4368.21,4217.44,4457.44,4092.31,4025.64,4489.23,4275.9,3944.62,4647.18,4598.97,4380.51,1684,1679,8.208,0,0,0,0,0
35,4250.77,4689.23,4325.13,4368.21,4217.44,4456.41,4091.28,4024.1,4487.69,4275.9,3944.62,4649.23,4598.97,4381.03,1684,1681,8.216,0,0,0,0,0
36,4250.77,4687.18,4325.13,4368.21,4217.44,4457.95,4088.21,4021.54,4489.23,4272.31,3944.62,4654.87,4598.97,4382.56,1686,1680,8.223,0,0,0,0,0
37,4250.77,4686.15,4325.13,4368.21,4217.44,4457.44,4082.56,4018.97,4489.23,4266.15,3944.62,4656.92,4598.97,4382.56,1685,1683,8.231,0,0,0,0,0
38,4250.77,4686.67,4325.13,4368.21,4217.44,4456.41,4080,4015.38,4481.54,4266.67,3944.62,4653.85,4598.97,4374.36,1687,1685,8.239,0,0,0,0,0
39,4250.77,4687.18,4325.13,4368.21,4217.44,4457.95,4085.64,4015.38,4480,4266.67,3944.62,4649.23,4598.97,4364.62,1686,1685,8.247,0,0,0,0,0
40,4250.77,4686.67,4325.13,4368.21,4217.44,4462.56,4094.87,4025.64,4488.21,4266.67,3944.62,4646.15,4598.97,4366.15,1687,1687,8.255,0,0,0,0,0
41,4250.77,4686.15,4325.13,4368.21,4217.44,4465.64,4098.97,4035.38,4490.26,4274.87,3944.62,4646.67,4598.97,4370.77,1688,1688,8.262,0,0,0,0,0
42,4250.77,4686.15,4325.13,4368.21,4217.44,4463.59,4096.92,4034.36,4486.67,4281.54,3944.62,4646.67,4598.97,4370.77,1688,1691,8.27,0,0,0,0,0
43,4250.77,4687.18,4325.13,4368.21,4217.44,4461.03,4093.33,4029.23,4488.21,4283.08,3944.62,4645.13,4598.97,4371.79,1689,1692,8.278,0,0,0,0,0
44,4250.77,4688.72,4325.13,4368.21,4217.44,4458.97,4090.77,4027.18,4489.23,4278.97,3944.62,4648.72,4598.97,4374.87,1690,1691,8.286,0,0,0,0,0
45,4250.77,4688.72,4325.13,4368.21,4217.44,4463.59,4095.9,4034.36,4488.21,4269.74,3944.62,4655.9,4598.97,4382.56,1692,1689,8.294,0,0,0,0,0
46,4250.77,4687.69,4325.13,4368.21,4217.44,4471.79,4104.1,4044.1,4488.72,4267.69,3944.62,4657.95,4598.97,4393.33,1692,1689,8.302,0,0,0,0,0
47,4250.77,4687.18,4325.13,4368.21,4217.44,4472.82,4107.18,4046.67,4489.23,4273.85,3944.62,4653.85,4598.97,4394.87,1694,1688,8.308,0,0,0,0,0
48,4250.77,4686.15,4325.13,4368.21,4217.44,4473.33,4103.59,4042.05,4489.23,4272.82,3944.62,4648.72,4598.97,4378.97,1694,1686,8.316,0,0,0,0,0
49,4250.77,4686.15,4325.13,4368.21,4217.44,4471.28,4101.54,4037.95,4490.26,4269.74,3944.62,4648.21,4598.97,4369.23,1696,1684,8.324,0,0,0,0,0
50,4250.77,4687.18,4325.13,4368.21,4217.44,4461.03,4098.46,4034.87,4489.74,4271.79,3944.62,4649.23,4598.97,4378.97,1695,1682,8.332,0,0,0,0,0
51,4250.77,4686.67,4325.13,4368.21,4217.44,4460.51,4096.41,4029.74,4488.21,4273.33,3944.62,4650.26,4598.97,4390.77,1695,1681,8.34,0,0,0,0,0
52,4250.77,4686.15,4325.13,4368.21,4217.44,4473.85,4100.51,4030.77,4487.69,4273.33,3944.62,4652.31,4598.97,4390.26,1697,1677,8.347,0,0,0,0,0
53,4250.77,4687.18,4325.13,4368.21,4217.44,4478.97,4108.21,4045.64,4488.21,4271.79,3944.62,4652.31,4598.97,4389.23,1695,1678,8.355,0,0,0,0,0
54,4250.77,4688.72,4325.13,4368.21,4217.44,4476.92,4111.28,4056.92,4489.23,4273.85,3944.62,4648.21,4598.97,4395.9,1695,1676,8.363,0,0,0,0,0
55,4250.77,4688.72,4325.13,4368.21,4216.92,4478.97,4109.23,4053.85,4489.74,4280.51,3944.62,4650.26,4598.97,4400.51,1694,1677,8.371,0,0,0,0,0
56,4250.77,4686.67,4325.13,4368.21,4217.44,4476.92,4107.18,4049.74,4488.72,4277.44,3944.62,4656.41,4598.97,4397.44,1693,1678,8.379,0,0,0,0,0
57,4250.77,4686.15,4325.13,4368.21,4218.97,4474.36,4105.13,4045.13,4487.69,4267.18,3944.62,4653.33,4598.97,4389.23,1692,1680,8.387,0,0,0,0,0
58,4250.77,4687.69,4325.13,4368.21,4218.46,4472.82,4099.49,4035.9,4488.21,4264.1,3944.62,4648.21,4598.97,4380,1692,1681,8.394,0,0,0,0,0
59,4250.26,4688.21,4325.13,4368.21,4217.95,4466.15,4095.9,4034.36,4488.72,4273.85,3944.62,4648.72,4598.97,4375.9,1689,1683,8.402,0,0,0,0,0
60,4251.28,4687.18,4325.13,4368.21,4218.97,4464.1,4096.41,4035.38,4488.21,4283.59,3944.62,4648.21,4598.97,4378.46,1689,1685,8.41,0,0,0,0,0
61,4251.28,4687.69,4325.13,4368.21,4217.44,4471.79,4097.95,4032.31,4488.21,4276.92,3944.62,4649.23,4598.97,4388.21,1689,1686,8.418,0,0,0,0,0
62,4249.74,4689.23,4325.13,4368.21,4215.38,4477.44,4103.08,4036.41,4488.72,4265.64,3944.62,4653.33,4598.97,4392.82,1689,1688,8.426,0,0,0,0,0
63,4254.36,4687.18,4325.13,4368.21,4216.41,4475.9,4107.69,4045.64,4488.72,4268.21,3944.62,4652.82,4598.97,4390.26,1690,1688,8.433,0,0,0,0,0
64,4266.15,4685.64,4325.13,4368.21,4217.95,4474.36,4106.15,4047.18,4488.72,4273.85,3944.62,4648.72,4598.97,4382.05,1689,1689,8.441,0,0,0,0,0
65,4266.15,4686.15,4325.13,4368.21,4217.44,4476.41,4104.1,4046.67,4488.21,4271.28,3944.62,4649.74,4598.97,4368.72,1691,1687,8.449,0,0,0,0,0
66,4253.33,4686.67,4325.13,4368.21,4217.44,4473.85,4102.05,4042.56,4488.72,4270.26,3944.62,4649.23,4598.97,4369.23,1690,1688,8.457,0,0,0,0,0
67,4249.23,4686.67,4325.13,4368.21,4217.44,4466.15,4095.9,4033.85,4490.26,4271.79,3944.62,4650.26,4598.97,4384.1,1690,1686,8.465,0,0,0,0,0
68,4252.31,4687.18,4325.13,4368.21,4217.44,4460.51,4091.79,4026.67,4489.23,4271.28,3944.62,4655.9,4598.97,4387.69,1689,1686,8.473,0,0,0,0,0
69,4250.77,4686.67,4325.13,4368.21,4217.44,4458.97,4089.74,4026.15,4487.69,4270.26,3944.62,4655.9,4598.97,4383.59,1688,1686,8.48,0,0,0,0,0
70,4249.74,4686.15,4325.13,4368.21,4217.44,4461.54,4091.28,4033.85,4487.69,4273.85,3944.62,4652.82,4598.97,4394.87,1688,1685,8.488,0,0,0,0,0
71,4252.31,4686.15,4325.13,4368.21,4217.44,4470.77,4101.54,4045.13,4488.72,4280,3944.62,4651.79,4598.97,4403.08,1688,1685,8.496,0,0,0,0,0
72,4251.79,4686.15,4325.13,4368.21,4217.44,4477.95,4108.21,4047.69,4489.74,4281.54,3944.62,4649.74,4598.97,4396.92,1685,1684,8.504,0,0,0,0,0
73,4250.26,4686.15,4325.13,4368.21,4217.44,4470.26,4100.51,4041.03,4489.74,4277.95,3944.62,4649.23,4598.97,4395.9,1685,1686,8.512,0,0,0,0,0
74,4251.28,4686.15,4325.13,4368.21,4217.44,4460,4093.85,4035.38,4488.21,4280.51,3944.62,4649.74,4598.97,4398.46,1685,1684,8.52,0,0,0,0,0
75,4250.77,4686.15,4325.13,4368.21,4217.44,4461.03,4098.46,4034.36,4487.69,4281.54,3944.62,4648.72,4598.97,4397.95,1682,1686,8.527,0,0,0,0,0
76,4250.77,4686.67,4325.13,4368.21,4217.44,4465.13,4100.51,4036.92,4488.21,4271.28,3944.62,4651.79,4598.97,4397.44,1683,1686,8.535,0,0,0,0,0
77,4250.77,4686.15,4325.13,4368.21,4217.44,4462.05,4094.87,4035.9,4488.72,4264.1,3944.62,4655.38,4598.97,4396.92,1681,1685,8.543,0,0,0,0,0
78,4250.77,4685.64,4325.13,4368.21,4217.44,4459.49,4089.74,4028.21,4488.21,4267.18,3944.62,4652.31,4598.97,4394.36,1681,1686,8.551,0,0,0,0,0
79,4250.77,4687.69,4325.13,4368.21,4217.44,4460.51,4089.74,4028.21,4488.21,4267.18,3944.62,4647.69,4598.97,4387.18,1681,1685,8.559,0,0,0,0,0
80,4250.77,4688.72,4325.13,4368.21,4217.44,4458.97,4090.26,4035.38,4488.72,4262.56,3944.62,4649.74,4598.97,4383.08,1681,1685,8.566,0,0,0,0,0
81,4250.77,4686.67,4325.13,4368.21,4217.44,4464.62,4093.85,4040,4488.72,4262.05,3944.62,4654.87,4598.97,4390.77,1681,1684,8.574,0,0,0,0,0
82,4250.77,4686.67,4325.13,4368.21,4217.44,4474.87,4103.59,4045.64,4488.72,4265.64,3944.62,4655.38,4598.97,4405.13,1682,1684,8.582,0,0,0,0,0
83,4250.77,4688.72,4325.13,4368.21,4217.44,4476.41,4111.28,4054.36,4488.72,4263.08,3944.62,4654.36,4598.97,4414.36,1681,1683,8.59,0,0,0,0,0
84,4250.77,4687.69,4325.13,4368.21,4217.44,4474.87,4110.77,4056.92,4488.72,4261.54,3944.62,4654.87,4598.97,4414.87,1683,1684,8.598,0,0,0,0,0
85,4250.77,4685.64,4325.13,4368.21,4217.44,4475.9,4107.18,4053.33,4488.72,4273.33,3944.62,4655.38,4598.97,4405.13,1682,1685,8.606,0,0,0,0,0
86,4250.77,4686.67,4325.13,4368.21,4217.44,4474.87,4111.79,4052.82,4488.72,4284.1,3944.62,4654.36,4598.97,4397.95,1682,1685,8.613,0,0,0,0,0
87,4250.77,4687.69,4325.13,4368.21,4217.44,4481.03,4117.95,4050.26,4488.72,4280.51,3944.62,4654.36,4598.97,4406.15,1681,1686,8.621,0,0,0,0,0
88,4250.77,4687.69,4325.13,4368.21,4217.44,4486.15,4112.31,4039.49,4488.72,4275.9,3944.62,4652.31,4598.97,4408.72,1682,1687,8.629,0,0,0,0,0
89,4250.77,4688.21,4325.13,4368.21,4217.44,4477.95,4103.59,4028.72,4488.72,4281.54,3944.62,4648.21,4598.97,4385.64,1680,1687,8.637,0,0,0,0,0
90,4250.77,4689.74,4325.13,4368.21,4217.44,4472.31,4103.59,4026.15,4488.72,4283.59,3944.62,4649.74,4598.97,4367.18,1681,1687,8.645,0,0,0,0,0
91,4250.77,4688.72,4325.13,4368.21,4217.44,4474.36,4104.62,4031.28,4488.21,4272.31,3944.62,4653.33,4598.97,4376.41,1679,1686,8.652,0,0,0,0,0
92,4250.77,4686.67,4325.13,4368.21,4217.44,4472.31,4104.1,4036.41,4487.18,4266.67,3944.62,4654.87,4598.97,4386.15,1680,1687,8.66,0,0,0,0,0
93,4250.77,4686.67,4325.13,4368.21,4217.44,4468.21,4105.13,4037.95,4486.67,4268.21,3944.62,4654.87,4598.97,4381.03,1680,1685,8.668,0,0,0,0,0
94,4250.77,4685.64,4325.13,4368.21,4217.44,4463.08,4099.49,4036.92,4488.21,4268.72,3944.62,4655.38,4598.97,4384.62,1678,1687,8.676,0,0,0,0,0
95,4250.77,4686.15,4325.13,4368.21,4217.44,4458.46,4095.38,4035.9,4489.74,4269.74,3944.62,4654.87,4598.97,4395.38,1680,1686,8.684,0,0,0,0,0
96,4250.77,4687.69,4325.13,4368.21,4217.44,4466.15,4101.03,4036.92,4490.26,4272.82,3944.62,4653.33,4598.97,4393.85,1679,1685,8.692,0,0,0,0,0
97,4250.77,4689.23,4325.13,4368.21,4217.44,4471.79,4102.05,4037.95,4488.72,4272.82,3944.62,4652.82,4598.97,4386.67,1679,1685,8.699,0,0,0,0,0
98,4250.77,4689.23,4325.13,4368.21,4217.44,4463.59,4094.87,4032.31,4488.21,4273.85,3944.62,4653.33,4598.97,4392.31,1679,1684,8.707,0,0,0,0,0
99,4250.77,4688.21,4325.13,4368.21,4217.44,4460.51,4091.79,4023.08,4488.21,4279.49,3944.62,4653.33,4598.97,4402.05,1680,1683,8.715,0,0,0,0,0
100,4250.77,4686.67,4325.13,4368.21,4217.44,4464.1,4091.79,4018.46,4487.69,4276.92,3944.62,4653.33,4598.97,4395.38,1681,1682,8.723,0,0,0,0,0
101,4250.77,4686.67,4325.13,4368.21,4217.44,4461.03,4091.28,4022.05,4487.18,4272.31,3944.62,4652.82,4598.97,4381.54,1681,1681,8.731,0,0,0,0,0
102,4250.77,4686.67,4325.13,4368.21,4217.44,4458.97,4092.82,4028.72,4487.69,4271.79,3944.62,4653.33,4598.97,4385.64,1682,1679,8.738,0,0,0,0,0
103,4250.77,4686.67,4325.13,4368.21,4217.44,4460.51,4092.31,4030.26,4488.72,4272.31,3944.62,4653.85,4598.97,4392.82,1682,1680,8.746,0,0,0,0,0
104,4250.77,4688.21,4325.13,4368.21,4217.44,4458.46,4089.74,4028.72,4488.72,4272.82,3944.62,4652.82,4598.97,4384.62,1683,1679,8.754,0,0,0,0,0
105,4250.77,4688.72,4325.13,4368.21,4217.44,4457.44,4091.28,4027.69,4488.21,4272.82,3944.62,4653.85,4598.97,4383.08,1681,1680,8.762,0,0,0,0,0
106,4250.77,4687.18,4325.13,4368.21,4217.44,4460.51,4093.33,4029.74,4488.72,4273.33,3944.62,4656.41,4598.97,4389.74,1683,1679,8.77,0,0,0,0,0
107,4250.77,4686.67,4325.13,4368.21,4217.44,4461.54,4091.28,4028.72,4488.72,4272.31,3944.62,4653.33,4598.97,4389.23,1682,1680,8.778,0,0,0,0,0
108,4250.77,4687.18,4325.13,4368.21,4217.44,4459.49,4088.21,4023.59,4488.72,4269.74,3944.62,4648.72,4598.97,4392.31,1685,1683,8.785,0,0,0,0,0
109,4250.77,4686.67,4325.13,4368.21,4217.44,4459.49,4089.23,4018.97,4488.72,4270.77,3944.62,4647.69,4598.97,4394.36,1685,1683,8.793,0,0,0,0,0
110,4250.77,4686.67,4325.13,4368.21,4217.44,4468.21,4091.28,4020,4488.72,4273.33,3944.62,4648.72,4598.97,4381.54,1686,1686,8.801,0,0,0,0,0
111,4250.77,4686.67,4325.13,4368.21,4217.44,4474.87,4093.33,4023.59,4488.72,4272.31,3944.62,4649.23,4598.97,4372.82,1687,1687,8.809,0,0,0,0,0
112,4250.77,4687.18,4325.13,4368.21,4217.44,4470.77,4093.33,4028.21,4488.72,4272.31,3944.62,4648.72,4598.97,4371.79,1688,1690,8.817,0,0,0,0,0
113,4250.77,4687.18,4325.13,4368.21,4217.44,4469.74,4094.87,4035.38,4488.72,4277.95,3944.62,4649.74,4598.97,4366.67,1689,1691,8.824,0,0,0,0,0
114,4250.77,4687.18,4325.13,4368.21,4217.44,4474.87,4097.95,4036.41,4488.72,4283.59,3944.62,4653.33,4598.97,4361.54,1689,1693,8.832,0,0,0,0,0
115,4250.77,4687.18,4325.13,4368.21,4217.44,4474.36,4094.87,4027.18,4488.72,4277.95,3944.62,4656.92,4598.97,4362.56,1691,1693,8.84,0,0,0,0,0
116,4250.77,4687.18,4325.13,4368.21,4217.44,4470.77,4089.23,4020,4488.72,4267.69,3944.62,4655.38,4598.97,4371.79,1690,1693,8.848,0,0,0,0,0
117,4250.77,4687.18,4325.13,4368.21,4217.44,4473.33,4096.41,4025.64,4488.72,4267.18,3944.62,4649.74,4598.97,4381.54,1692,1691,8.856,0,0,0,0,0
118,4250.77,4686.67,4325.13,4368.21,4217.44,4477.95,4108.72,4036.41,4488.72,4273.33,3944.62,4650.77,4598.97,4382.56,1692,1688,8.864,0,0,0,0,0
119,4250.77,4686.67,4325.13,4368.21,4217.44,4479.49,4110.26,4035.9,4488.21,4273.33,3944.62,4655.9,4598.97,4380.51,1694,1687,8.871,0,0,0,0,0
120,4250.77,4687.18,4325.13,4368.21,4217.44,4478.97,4105.13,4029.23,4488.21,4270.26,3944.62,4655.9,4598.97,4384.1,1696,1684,8.879,0,0,0,0,0
121,4250.77,4686.67,4325.13,4368.21,4217.44,4477.95,4103.08,4027.18,4488.72,4275.38,3944.62,4650.77,4598.97,4383.08,1696,1682,8.887,0,0,0,0,0
122,4250.77,4686.67,4325.13,4368.21,4217.44,4476.41,4100.51,4029.74,4488.72,4283.08,3944.62,4651.28,4598.97,4378.46,1697,1679,8.895,0,0,0,0,0
123,4250.77,4687.69,4325.13,4368.21,4217.44,4474.36,4097.44,4033.33,4489.23,4278.97,3944.62,4654.36,4598.97,4388.21,1696,1679,8.903,0,0,0,0,0
124,4250.77,4689.23,4325.13,4368.21,4217.44,4472.31,4096.41,4031.28,4489.74,4270.77,3944.62,4651.28,4598.97,4400.51,1697,1676,8.91,0,0,0,0,0
125,4250.77,4689.23,4325.13,4368.21,4217.44,4471.28,4092.31,4025.13,4490.77,4270.26,3944.62,4648.72,4598.97,4398.46,1696,1676,8.918,0,0,0,0,0
126,4250.77,4689.23,4325.13,4368.21,4217.44,4471.79,4091.79,4021.54,4490.77,4270.77,3944.62,4650.77,4598.97,4393.85,1695,1676,8.926,0,0,0,0,0
127,4250.77,4689.23,4325.13,4368.21,4217.44,4474.36,4102.56,4027.69,4488.21,4272.31,3944.62,4650.26,4598.97,4392.31,1693,1678,8.934,0,0,0,0,0
128,4250.77,4687.69,4325.13,4368.21,4217.44,4476.41,4107.69,4035.9,4487.69,4279.49,3944.62,4649.74,4598.97,4386.67,1693,1679,8.942,0,0,0,0,0
0,4250.77,4686.15,4325.13,4368.21,4217.44,4475.9,4101.03,4035.9,4489.74,4274.87,3944.62,4654.36,4598.97,4381.54,1690,1680,8.95,0,0,0,0,0
1,4250.77,4687.18,4325.13,4368.21,4217.44,4473.33,4096.92,4032.31,4489.23,4261.54,3944.62,4657.95,4598.97,4384.1,1689,1683,8.957,0,0,0,0,0
2,4250.77,4688.21,4325.13,4368.21,4217.44,4470.77,4096.41,4030.26,4487.18,4268.72,3944.62,4652.82,4598.97,4388.72,1689,1683,8.965,0,0,0,0,0
3,4250.77,4688.21,4325.13,4368.21,4217.44,4470.77,4098.46,4030.26,4487.69,4286.15,3944.62,4648.21,4598.97,4392.31,1687,1686,8.973,0,0,0,0,0
4,4250.77,4687.69,4325.13,4368.21,4217.44,4471.79,4104.1,4035.38,4489.23,4280.51,3944.62,4651.28,4598.97,4391.79,1689,1687,8.981,0,0,0,0,0
5,4250.77,4688.21,4325.13,4368.21,4217.44,4472.31,4103.59,4038.97,4488.72,4267.69,3944.62,4654.36,4598.97,4389.23,1688,1688,8.989,0,0,0,0,0
6,4250.77,4688.21,4325.13,4368.21,4217.44,4473.33,4097.44,4030.26,4488.21,4268.72,3944.62,4649.74,4598.97,4392.82,1689,1688,8.997,0,0,0,0,0
7,4250.77,4687.69,4325.13,4368.21,4217.44,4475.38,4101.54,4025.64,4488.72,4273.85,3944.62,4648.21,4598.97,4389.74,1690,1688,9.004,0,0,0,0,0
8,4250.77,4686.15,4325.13,4368.21,4217.44,4481.03,4114.36,4041.03,4488.72,4272.31,3944.62,4650.77,4598.97,4377.95,1691,1686,9.012,0,0,0,0,0
9,4250.77,4685.13,4325.13,4368.21,4217.44,4481.54,4114.87,4046.67,4488.72,4270.77,3944.62,4649.74,4598.97,4377.44,1691,1685,9.02,0,0,0,0,0
10,4250.77,4685.64,4325.13,4368.21,4217.44,4468.72,4101.54,4034.36,4488.72,4272.31,3944.62,4648.72,4598.97,4371.79,1690,1684,9.032,0,0,0,0,0
11,4250.77,4687.18,4325.13,4368.21,4217.44,4460,4098.46,4032.82,4488.72,4272.82,3944.62,4649.23,4598.97,4346.15,1689,1684,9.036,0,0,0,0,0
12,4250.77,4687.69,4325.13,4368.21,4217.44,4463.08,4103.59,4032.82,4488.72,4272.31,3944.62,4648.21,4598.97,4319.49,1690,1682,9.043,0,0,0,0,0
13,4250.77,4686.67,4325.13,4368.21,4217.44,4462.05,4093.85,4020.51,4488.72,4272.82,3944.62,4651.28,4598.97,4303.59,1689,1684,9.051,0,0,0,0,0
14,4250.77,4687.18,4325.13,4368.21,4217.44,4455.38,4083.59,4014.87,4488.72,4272.82,3944.62,4655.9,4598.97,4290.77,1687,1683,9.059,0,0,0,0,0
15,4250.77,4688.72,4325.13,4368.21,4217.44,4457.44,4091.79,4021.03,4488.72,4272.82,3944.62,4655.38,4598.97,4281.54,1686,1684,9.067,0,0,0,0,0
16,4250.77,4688.21,4324.62,4368.21,4217.44,4464.1,4097.95,4022.05,4488.72,4272.82,3944.62,4656.92,4598.97,4280,1685,1685,9.075,0,0,0,0,0
17,4250.77,4687.18,4323.59,4368.21,4217.44,4464.1,4093.85,4022.56,4488.72,4272.82,3944.62,4656.92,4598.97,4278.46,1682,1686,9.083,0,0,0,0,0
18,4250.77,4687.18,4324.1,4368.21,4217.44,4461.54,4093.85,4030.77,4488.72,4272.82,3944.62,4650.26,4598.97,4276.92,1683,1687,9.09,0,0,0,0,0
19,4250.77,4687.18,4324.62,4368.21,4217.44,4464.62,4095.38,4036.41,4488.72,4272.82,3944.62,4649.23,4598.97,4286.15,1681,1686,9.098,0,0,0,0,0
20,4250.77,4685.64,4324.62,4368.21,4217.44,4466.67,4094.87,4038.46,4488.72,4272.82,3944.62,4656.41,4598.97,4297.95,1681,1687,9.106,0,0,0,0,0
21,4250.77,4685.64,4324.1,4368.21,4216.92,4461.03,4090.26,4035.9,4488.72,4272.82,3944.62,4655.38,4598.97,4288.21,1681,1685,9.114,0,0,0,0,0
22,4250.77,4686.67,4324.62,4368.21,4218.46,4461.54,4088.21,4026.67,4488.72,4272.31,3944.62,4652.31,4598.97,4274.87,1680,1686,9.122,0,0,0,0,0
23,4250.77,4686.15,4324.62,4368.21,4219.49,4471.28,4094.87,4016.92,4488.72,4272.82,3944.62,4651.79,4598.97,4287.69,1681,1684,9.129,0,0,0,0,0
24,4250.77,4686.67,4324.62,4368.21,4217.44,4474.36,4102.56,4018.97,4488.72,4273.33,3944.62,4649.23,4598.97,4300,1681,1685,9.137,0,0,0,0,0
25,4250.77,4687.69,4324.62,4368.21,4216.41,4480,4110.77,4034.87,4488.72,4270.77,3944.62,4650.77,4598.97,4296.41,1681,1684,9.145,0,0,0,0,0
26,4250.77,4688.21,4324.62,4368.21,4216.92,4487.18,4120,4045.64,4488.72,4274.36,3944.62,4655.9,4598.97,4292.31,1681,1684,9.153,0,0,0,0,0
27,4250.77,4687.18,4324.62,4368.21,4216.92,4486.67,4123.08,4050.26,4488.72,4280,3944.62,4656.41,4598.97,4296.41,1682,1684,9.161,0,0,0,0,0
28,4250.77,4687.18,4324.62,4368.21,4215.9,4486.15,4122.56,4056.92,4488.72,4272.82,3944.62,4653.33,4598.97,4301.03,1681,1684,9.169,0,0,0,0,0
29,4250.77,4687.18,4324.62,4368.21,4216.41,4486.15,4121.03,4057.44,4488.72,4266.67,3944.62,4650.77,4598.97,4297.95,1682,1684,9.176,0,0,0,0,0
30,4250.77,4687.18,4324.62,4368.21,4216.41,4478.46,4115.9,4048.21,4488.72,4272.31,3944.62,4647.18,4598.97,4292.31,1682,1684,9.184,0,0,0,0,0
31,4250.77,4687.18,4324.62,4368.21,4216.41,4475.38,4113.33,4039.49,4488.72,4274.36,3944.62,4649.74,4598.97,4291.79,1682,1686,9.192,0,0,0,0,0
32,4250.77,4687.18,4324.62,4368.21,4216.41,4481.54,4115.9,4037.95,4488.72,4270.77,3944.62,4652.82,4598.97,4292.31,1682,1685,9.2,0,0,0,0,0
33,4250.77,4687.18,4324.62,4368.21,4216.41,4478.97,4111.79,4031.28,4488.72,4273.33,3944.62,4650.26,4598.97,4294.36,1681,1687,9.208,0,0,0,0,0
34,4250.77,4687.18,4324.62,4368.21,4216.41,4474.36,4100.51,4020.51,4488.72,4275.9,3944.62,4651.79,4598.97,4291.28,1682,1686,9.215,0,0,0,0,0
35,4250.77,4687.18,4324.62,4368.21,4216.41,4467.69,4092.82,4014.87,4488.72,4274.87,3944.62,4656.41,4598.97,4273.33,1680,1687,9.223,0,0,0,0,0
36,4250.77,4687.18,4324.62,4368.21,4216.41,4463.08,4095.38,4018.46,4488.72,4274.87,3944.62,4656.41,4598.97,4259.49,1680,1688,9.231,0,0,0,0,0
37,4250.77,4687.18,4324.62,4368.21,4216.41,4470.26,4099.49,4024.1,4488.72,4273.85,3944.62,4655.38,4598.97,4260.51,1679,1687,9.239,0,0,0,0,0
38,4250.77,4687.18,4324.62,4368.21,4216.41,4471.79,4093.33,4018.46,4488.72,4275.9,3944.62,4653.85,4598.97,4259.49,1679,1687,9.247,0,0,0,0,0
39,4250.77,4687.18,4324.62,4368.21,4216.41,4464.1,4087.69,4011.28,4488.72,4275.38,3944.62,4649.74,4598.97,4262.05,1678,1686,9.255,0,0,0,0,0
40,4250.77,4687.18,4324.62,4368.21,4216.41,4467.18,4093.33,4018.46,4488.72,4269.23,3944.62,4647.69,4598.97,4273.85,1679,1685,9.262,0,0,0,0,0
41,4250.77,4687.18,4324.62,4368.21,4216.41,4475.38,4100.51,4030.77,4488.72,4268.72,3944.62,4648.72,4598.97,4280.51,1679,1683,9.27,0,0,0,0,0
42,4250.77,4687.18,4324.62,4368.21,4216.41,4472.31,4098.46,4028.72,4488.72,4273.33,3944.62,4648.21,4598.97,4280,1679,1684,9.278,0,0,0,0,0
43,4250.77,4687.18,4324.62,4368.21,4216.41,4469.74,4097.95,4027.18,4488.72,4272.31,3944.62,4649.74,4598.97,4271.28,1681,1682,9.286,0,0,0,0,0
44,4250.77,4687.69,4324.62,4368.21,4216.41,4472.82,4102.56,4038.97,4488.72,4271.28,3944.62,4649.74,4598.97,4261.03,1680,1681,9.294,0,0,0,0,0
45,4250.77,4687.18,4324.62,4368.21,4216.41,4473.85,4106.15,4047.18,4488.72,4274.87,3944.62,4648.72,4598.97,4261.54,1681,1680,9.301,0,0,0,0,0
46,4250.77,4685.64,4324.62,4368.21,4216.41,4472.31,4105.13,4045.13,4488.72,4275.9,3944.62,4651.79,4598.97,4267.18,1680,1679,9.309,0,0,0,0,0
47,4250.77,4686.15,4324.62,4368.21,4216.41,4473.33,4108.72,4044.1,4488.72,4274.36,3944.62,4656.41,4598.97,4265.64,1681,1679,9.317,0,0,0,0,0
48,4250.77,4687.18,4324.62,4368.21,4216.41,4485.64,4116.92,4047.18,4488.72,4274.87,3944.62,4656.92,4598.97,4263.59,1680,1678,9.325,0,0,0,0,0
49,4250.77,4687.18,4324.62,4368.21,4216.41,4492.82,4114.36,4046.67,4488.72,4274.87,3944.62,4654.36,4598.97,4265.13,1681,1680,9.333,0,0,0,0,0
50,4250.77,4687.18,4324.62,4368.21,4216.41,4477.95,4103.59,4035.9,4488.72,4274.87,3944.62,4654.87,4598.97,4256.92,1682,1681,9.341,0,0,0,0,0
51,4250.77,4687.18,4324.62,4368.21,4216.41,4469.23,4102.56,4027.18,4488.72,4274.87,3944.62,4657.44,4598.97,4246.15,1683,1684,9.348,0,0,0,0,0
52,4250.77,4687.18,4324.62,4368.21,4216.41,4476.92,4106.15,4029.23,4488.72,4274.87,3944.62,4656.92,4598.97,4245.13,1683,1685,9.356,0,0,0,0,0
53,4250.77,4687.18,4324.62,4368.21,4216.41,4477.44,4110.26,4035.38,4488.72,4274.87,3944.62,4655.38,4598.97,4246.15,1685,1690,9.364,0,0,0,0,0
54,4250.77,4687.18,4324.62,4368.21,4216.41,4474.36,4118.46,4041.03,4488.72,4274.87,3944.62,4654.36,4598.97,4250.26,1688,1691,9.372,0,0,0,0,0
55,4250.77,4687.18,4324.62,4368.21,4216.41,4480,4120,4046.67,4488.72,4274.36,3944.62,4654.87,4598.97,4260.51,1688,1695,9.38,0,0,0,0,0
56,4250.77,4687.18,4324.62,4368.21,4216.41,4478.46,4108.72,4042.05,4488.72,4274.87,3944.62,4655.9,4598.97,4266.67,1691,1696,9.387,0,0,0,0,0
57,4250.77,4687.18,4324.62,4368.21,4216.41,4464.1,4094.36,4029.23,4488.72,4275.38,3944.62,4652.82,4598.97,4261.03,1692,1695,9.395,0,0,0,0,0
58,4250.77,4687.18,4324.62,4368.21,4216.41,4456.41,4089.23,4026.67,4488.72,4273.33,3944.62,4648.72,4598.97,4257.44,1692,1694,9.403,0,0,0,0,0
59,4250.77,4687.69,4324.62,4368.21,4216.41,4465.13,4096.41,4035.38,4488.72,4274.87,3944.62,4649.74,4598.97,4260.51,1692,1691,9.411,0,0,0,0,0
60,4250.77,4687.18,4324.62,4368.21,4216.41,4475.9,4107.69,4041.03,4488.72,4281.54,3944.62,4653.85,4598.97,4252.31,1693,1690,9.419,0,0,0,0,0
61,4250.77,4686.67,4324.62,4368.21,4216.41,4476.92,4108.72,4039.49,4488.72,4279.49,3944.62,4653.33,4598.97,4237.44,1695,1686,9.427,0,0,0,0,0
62,4250.77,4688.72,4324.62,4368.21,4216.41,4476.92,4106.15,4035.9,4488.72,4274.36,3944.62,4652.31,4598.97,4251.79,1696,1684,9.434,0,0,0,0,0
63,4250.77,4689.23,4324.62,4368.21,4216.41,4481.03,4111.28,4037.95,4488.72,4280,3944.62,4653.33,4598.97,4305.64,1697,1680,9.442,0,0,0,0,0
64,4250.77,4687.18,4324.62,4368.21,4216.41,4481.03,4113.33,4043.59,4488.72,4280,3944.62,4653.33,4598.97,4366.67,1698,1678,9.45,0,0,0,0,0
65,4250.77,4686.15,4324.62,4368.21,4216.41,4475.9,4106.67,4045.64,4488.72,4267.18,3944.62,4652.82,4598.97,4406.67,1696,1674,9.458,0,0,0,0,0
66,4250.77,4686.67,4324.62,4368.21,4216.41,4473.85,4102.56,4044.1,4488.72,4266.15,3944.62,4652.82,4598.97,4449.23,1696,1674,9.466,0,0,0,0,0
67,4250.77,4687.69,4324.62,4368.21,4216.41,4475.38,4106.67,4047.69,4488.72,4280.51,3944.62,4652.82,4598.97,4516.92,1695,1674,9.474,0,0,0,0,0
68,4250.77,4687.69,4324.62,4368.21,4216.41,4474.87,4110.77,4051.79,4488.72,4283.08,3944.62,4652.82,4598.97,4573.85,1694,1677,9.481,0,0,0,0,0
69,4250.77,4688.21,4324.62,4368.21,4216.41,4474.36,4108.21,4051.28,4488.72,4270.26,3944.62,4652.82,4598.97,4597.44,1692,1678,9.489,0,0,0,0,0
70,4250.77,4688.21,4324.62,4368.21,4216.41,4475.38,4106.15,4051.79,4488.72,4264.1,3944.62,4652.82,4598.97,4640,1691,1681,9.497,0,0,0,0,0
71,4250.77,4688.21,4324.62,4367.69,4216.41,4473.85,4107.18,4051.79,4488.72,4266.67,3944.62,4653.85,4598.97,4695.9,1689,1683,9.505,0,0,0,0,0
72,4250.77,4687.18,4324.62,4367.69,4216.41,4472.82,4105.13,4047.18,4488.72,4265.64,3944.62,4655.9,4598.97,4722.05,1688,1685,9.513,0,0,0,0,0
73,4250.77,4687.18,4324.62,4368.21,4216.41,4470.77,4098.97,4043.59,4488.72,4264.1,3944.62,4655.38,4598.97,4754.87,1688,1685,9.52,0,0,0,0,0
74,4250.77,4688.72,4324.62,4367.69,4216.41,4463.08,4094.36,4043.08,4488.72,4263.59,3944.62,4655.9,4598.97,4804.62,1686,1688,9.528,0,0,0,0,0
75,4250.77,4688.72,4324.62,4367.69,4216.41,4458.46,4090.26,4037.44,4488.72,4262.56,3944.62,4656.92,4598.97,4834.36,1689,1688,9.536,0,0,0,0,0
76,4250.77,4686.67,4324.62,4371.28,4216.41,4462.05,4088.72,4029.23,4488.72,4272.31,3944.62,4651.79,4598.97,4856.92,1689,1687,9.544,0,0,0,0,0
77,4250.77,4686.15,4324.62,4373.85,4216.41,4462.05,4097.44,4035.38,4488.72,4285.13,3944.62,4647.69,4598.97,4881.03,1691,1687,9.552,0,0,0,0,0
78,4250.77,4686.67,4324.62,4371.79,4216.41,4459.49,4106.15,4046.15,4488.72,4276.92,3944.62,4653.85,4598.97,4875.9,1693,1685,9.56,0,0,0,0,0
79,4250.77,4688.21,4324.62,4369.74,4216.41,4460,4101.54,4041.03,4488.72,4264.62,3944.62,4657.95,4598.97,4849.23,1693,1685,9.567,0,0,0,0,0
80,4250.77,4688.21,4324.62,4370.77,4216.41,4458.97,4094.87,4032.82,4488.72,4270.26,3944.62,4653.33,4598.97,4829.74,1694,1684,9.575,0,0,0,0,0
81,4250.77,4687.69,4324.62,4370.77,4216.41,4463.08,4100.51,4039.49,4488.72,4275.38,3944.62,4647.69,4598.97,4801.03,1693,1683,9.583,0,0,0,0,0
82,4250.77,4686.67,4324.62,4370.26,4216.41,4472.82,4107.69,4046.67,4488.72,4271.28,3944.62,4647.69,4598.97,4751.28,1693,1682,9.591,0,0,0,0,0
83,4250.77,4686.15,4324.62,4370.26,4216.41,4475.9,4107.18,4043.59,4488.72,4271.28,3944.62,4654.36,4598.97,4704.1,1692,1684,9.599,0,0,0,0,0
84,4250.77,4686.15,4324.62,4370.26,4216.41,4474.36,4108.72,4044.1,4488.72,4273.33,3944.62,4656.92,4598.97,4667.18,1691,1683,9.606,0,0,0,0,0
85,4250.77,4686.67,4324.62,4370.26,4216.41,4476.41,4114.36,4051.28,4488.72,4271.79,3944.62,4649.74,4598.97,4641.03,1688,1685,9.614,0,0,0,0,0
86,4250.77,4687.18,4324.62,4370.26,4216.41,4477.95,4114.36,4050.26,4488.72,4271.28,3944.62,4649.23,4598.97,4627.18,1687,1685,9.622,0,0,0,0,0
87,4250.77,4687.18,4324.62,4370.26,4216.41,4476.41,4109.23,4038.97,4488.72,4271.79,3944.62,4655.38,4598.97,4610.77,1685,1686,9.63,0,0,0,0,0
88,4250.77,4687.18,4324.62,4370.26,4216.41,4475.9,4105.64,4033.33,4488.72,4271.79,3944.62,4652.31,4598.97,4584.62,1684,1688,9.638,0,0,0,0,0
89,4250.77,4687.18,4324.62,4370.26,4216.41,4475.38,4105.64,4040.51,4488.72,4271.79,3944.62,4647.69,4598.97,4567.18,1683,1686,9.646,0,0,0,0,0
90,4250.77,4687.18,4324.62,4370.26,4216.41,4474.36,4106.67,4047.69,4488.72,4271.79,3944.62,4649.23,4598.97,4562.05,1682,1687,9.653,0,0,0,0,0
91,4250.77,4687.18,4324.62,4370.26,4216.41,4472.82,4107.18,4046.15,4488.72,4271.79,3944.62,4649.23,4598.97,4547.18,1682,1685,9.661,0,0,0,0,0
92,4250.77,4687.18,4324.62,4370.26,4216.41,4470.26,4103.08,4045.13,4488.72,4271.79,3944.62,4648.21,4598.97,4534.36,1680,1685,9.669,0,0,0,0,0
93,4250.77,4687.18,4324.62,4370.26,4216.41,4467.69,4097.95,4045.13,4488.72,4271.79,3944.62,4648.72,4598.97,4533.85,1680,1684,9.677,0,0,0,0,0
94,4250.77,4687.18,4324.62,4370.26,4216.41,4462.56,4094.87,4037.44,4488.72,4271.28,3944.62,4651.28,4598.97,4530.26,1680,1683,9.685,0,0,0,0,0
95,4250.77,4687.18,4324.62,4370.26,4216.41,4458.97,4092.82,4029.23,4488.72,4271.28,3944.62,4652.82,4598.97,4509.74,1682,1683,9.692,0,0,0,0,0
96,4250.77,4687.18,4324.62,4370.26,4216.41,4464.1,4097.44,4032.82,4488.72,4272.82,3944.62,4652.31,4598.97,4489.23,1681,1682,9.7,0,0,0,0,0
97,4250.77,4687.18,4324.62,4370.26,4216.41,4476.41,4111.28,4049.23,4488.72,4271.79,3944.62,4654.36,4598.97,4490.26,1682,1682,9.708,0,0,0,0,0
98,4250.77,4687.69,4324.62,4370.26,4216.41,4482.05,4122.56,4065.13,4488.72,4270.26,3944.62,4655.9,4598.97,4495.9,1681,1681,9.716,0,0,0,0,0
99,4250.77,4687.18,4324.62,4370.26,4216.41,4479.49,4123.08,4068.72,4488.72,4275.9,3944.62,4650.77,4598.97,4486.15,1681,1684,9.724,0,0,0,0,0
100,4250.77,4687.18,4324.62,4370.26,4216.41,4478.46,4118.46,4063.08,4488.72,4277.95,3944.62,4646.15,4598.97,4461.03,1682,1683,9.732,0,0,0,0,0
101,4250.77,4688.21,4324.62,4370.26,4216.41,4472.31,4111.79,4056.41,4488.72,4269.23,3944.62,4649.74,4598.97,4444.1,1681,1685,9.739,0,0,0,0,0
102,4250.77,4688.21,4324.62,4370.26,4216.41,4464.62,4105.64,4046.67,4488.72,4262.56,3944.62,4654.87,4598.97,4446.15,1682,1685,9.747,0,0,0,0,0
103,4250.77,4687.18,4324.62,4370.26,4216.41,4467.69,4104.62,4041.54,4488.72,4265.13,3944.62,4655.38,4598.97,4448.21,1681,1687,9.755,0,0,0,0,0
104,4250.77,4687.18,4324.62,4370.26,4216.41,4475.38,4110.26,4048.72,4488.72,4274.36,3944.62,4655.9,4598.97,4446.15,1682,1687,9.763,0,0,0,0,0
105,4250.77,4687.18,4324.62,4370.26,4216.41,4474.87,4112.82,4053.33,4488.72,4283.59,3944.62,4654.36,4598.97,4439.49,1681,1688,9.771,0,0,0,0,0
106,4250.77,4686.15,4324.62,4370.26,4216.41,4475.38,4113.33,4048.21,4488.72,4281.54,3944.62,4652.82,4598.97,4427.18,1682,1688,9.778,0,0,0,0,0
107,4250.77,4687.18,4324.62,4370.26,4216.41,4485.13,4118.97,4051.79,4488.72,4271.28,3944.62,4652.82,4598.97,4428.72,1680,1688,9.786,0,0,0,0,0
108,4250.77,4687.69,4324.62,4370.26,4216.41,4490.77,4126.67,4065.13,4488.72,4269.74,3944.62,4652.31,4598.97,4445.64,1681,1688,9.794,0,0,0,0,0
109,4250.77,4687.18,4324.62,4370.26,4216.41,4490.77,4126.15,4062.56,4488.72,4273.33,3944.62,4649.23,4598.97,4446.67,1679,1687,9.802,0,0,0,0,0
110,4250.77,4686.15,4324.62,4370.26,4216.41,4489.23,4117.44,4045.13,4488.72,4271.79,3944.62,4648.21,4598.97,4432.31,1679,1688,9.81,0,0,0,0,0
111,4250.77,4685.64,4324.62,4370.26,4216.41,4481.03,4109.23,4034.87,4488.72,4271.28,3944.62,4650.26,4598.97,4421.54,1679,1684,9.818,0,0,0,0,0
112,4250.77,4687.18,4324.62,4370.26,4216.41,4473.85,4104.62,4033.85,4488.72,4272.31,3944.62,4649.23,4598.97,4415.38,1678,1685,9.825,0,0,0,0,0
113,4250.77,4688.21,4324.62,4370.26,4216.41,4477.95,4107.18,4036.92,4488.72,4272.31,3944.62,4649.23,4598.97,4419.49,1679,1683,9.833,0,0,0,0,0
114,4250.77,4686.67,4324.62,4370.26,4216.41,4481.54,4112.82,4044.62,4488.72,4270.77,3944.62,4649.74,4598.97,4429.74,1678,1682,9.841,0,0,0,0,0
115,4250.77,4685.64,4324.62,4370.26,4216.41,4475.38,4106.15,4045.64,4488.72,4271.79,3944.62,4648.72,4598.97,4429.23,1680,1681,9.849,0,0,0,0,0
116,4250.77,4687.18,4324.62,4370.26,4216.41,4471.28,4094.36,4038.97,4488.72,4271.79,3944.62,4649.74,4598.97,4415.9,1679,1681,9.857,0,0,0,0,0
117,4250.77,4687.18,4324.62,4370.26,4216.41,4475.38,4099.49,4042.05,4488.72,4270.26,3944.62,4648.21,4598.97,4409.74,1680,1682,9.864,0,0,0,0,0
118,4250.77,4687.18,4324.62,4370.26,4216.41,4478.46,4110.77,4048.21,4488.72,4274.36,3944.62,4649.23,4598.97,4424.62,1680,1683,9.872,0,0,0,0,0
119,4250.77,4688.21,4324.62,4370.26,4216.41,4475.38,4108.21,4045.64,4488.72,4278.97,3944.62,4655.38,4598.97,4432.31,1680,1684,9.88,0,0,0,0,0
120,4250.77,4687.69,4324.62,4370.26,4216.41,4473.33,4103.59,4039.49,4488.72,4280,3944.62,4654.87,4598.97,4417.44,1681,1688,9.888,0,0,0,0,0
121,4250.77,4687.18,4324.62,4370.26,4216.41,4475.9,4107.18,4036.41,4488.72,4279.49,3944.62,4648.72,4598.97,4409.23,1684,1690,9.896,0,0,0,0,0
122,4250.77,4687.69,4324.62,4370.26,4216.41,4476.92,4108.72,4034.87,4488.72,4274.36,3944.62,4649.23,4598.97,4411.28,1685,1692,9.904,0,0,0,0,0
123,4250.77,4686.67,4324.62,4370.26,4216.41,4475.9,4105.64,4034.36,4488.72,4267.69,3944.62,4651.28,4598.97,4404.1,1688,1692,9.911,0,0,0,0,0
124,4250.77,4686.67,4324.62,4370.26,4216.41,4480,4108.21,4034.87,4488.72,4269.23,3944.62,4648.72,4598.97,4405.13,1690,1693,9.919,0,0,0,0,0
125,4250.77,4688.21,4324.62,4370.26,4216.41,4481.54,4114.36,4043.59,4488.72,4274.36,3944.62,4648.21,4598.97,4420,1693,1692,9.927,0,0,0,0,0
126,4250.77,4688.72,4324.62,4370.26,4216.41,4478.97,4115.9,4054.87,4488.72,4271.28,3944.62,4649.74,4598.97,4421.03,1693,1689,9.935,0,0,0,0,0
127,4250.77,4686.67,4324.62,4370.26,4216.41,4477.44,4114.36,4055.38,4488.72,4269.74,3944.62,4649.74,4598.97,4405.13,1694,1688,9.943,0,0,0,0,0
128,4250.77,4686.15,4324.62,4370.26,4216.41,4475.9,4114.36,4050.26,4488.72,4277.95,3944.62,4650.26,4598.97,4397.44,1694,1686,9.95,0,0,0,0,0
0,4250.77,4687.18,4324.62,4370.26,4216.41,4474.87,4110.77,4046.67,4488.72,4284.62,3944.62,4648.72,4598.97,4408.72,1695,1686,9.958,0,0,0,0,0
1,4250.77,4688.72,4324.62,4370.26,4216.41,4475.38,4105.13,4043.59,4488.72,4277.44,3944.62,4650.26,4598.97,4415.38,1697,1682,9.966,0,0,0,0,0
2,4250.77,4688.21,4324.62,4370.26,4216.41,4475.9,4105.13,4043.59,4488.72,4267.18,3944.62,4655.38,4598.97,4402.56,1696,1683,9.974,0,0,0,0,0
3,4250.77,4686.67,4324.62,4370.26,4216.41,4474.36,4105.64,4043.08,4488.72,4270.77,3944.62,4653.85,4598.97,4387.69,1698,1679,9.982,0,0,0,0,0
4,4250.77,4687.18,4324.62,4370.26,4216.41,4472.82,4104.62,4037.95,4488.72,4275.38,3944.62,4647.69,4598.97,4380.51,1697,1678,9.99,0,0,0,0,0
5,4250.77,4687.18,4324.62,4370.26,4216.41,4473.33,4108.21,4036.92,4488.72,4271.79,3944.62,4648.21,4598.97,4383.59,1697,1678,9.997,0,0,0,0,0
6,4250.77,4687.18,4324.62,4370.26,4216.41,4473.33,4105.64,4036.92,4488.72,4270.26,3944.62,4650.77,4598.97,4395.38,1696,1678,10.005,0,0,0,0,0
7,4250.77,4687.18,4324.62,4370.26,4216.41,4467.18,4094.87,4032.31,4488.72,4272.82,3944.62,4647.69,4598.97,4401.03,1696,1679,10.013,0,0,0,0,0
8,4250.77,4687.18,4324.62,4370.26,4216.41,4461.54,4089.74,4025.13,4488.72,4273.33,3944.62,4648.72,4598.97,4386.15,1693,1679,10.022,0,0,0,0,0
9,4250.77,4687.18,4324.62,4370.26,4216.41,4462.05,4091.79,4022.56,4488.72,4272.82,3944.62,4653.85,4598.97,4365.13,1693,1681,10.03,0,0,0,0,0
10,4250.77,4687.18,4324.62,4370.26,4216.41,4463.08,4090.77,4025.13,4488.72,4275.38,3944.62,4656.41,4598.97,4356.92,1691,1681,10.037,0,0,0,0,0
11,4250.77,4687.18,4324.62,4370.26,4216.41,4460.51,4088.21,4024.1,4488.72,4280,3944.62,4656.41,4598.97,4356.41,1690,1684,10.045,0,0,0,0,0
12,4250.77,4687.18,4324.62,4370.26,4216.41,4458.97,4088.21,4021.03,4488.72,4280,3944.62,4653.33,4598.97,4357.95,1689,1684,10.053,0,0,0,0,0
13,4250.77,4687.18,4324.62,4370.26,4216.41,4458.46,4090.26,4022.56,4488.72,4274.36,3944.62,4650.26,4598.97,4355.9,1688,1686,10.06,0,0,0,0,0
14,4250.77,4687.18,4324.62,4370.26,4216.41,4459.49,4091.79,4024.62,4488.72,4271.79,3944.62,4648.72,4598.97,4352.31,1690,1686,10.069,0,0,0,0,0
15,4250.77,4687.18,4324.62,4370.26,4216.41,4458.46,4092.31,4022.56,4488.72,4272.31,3944.62,4649.74,4598.97,4357.44,1689,1686,10.076,0,0,0,0,0
16,4250.77,4687.18,4324.62,4370.26,4216.41,4458.46,4092.31,4020.51,4488.72,4271.28,3944.62,4652.31,4598.97,4367.69,1692,1686,10.084,0,0,0,0,0
17,4250.77,4687.18,4324.62,4370.26,4216.41,4463.08,4094.87,4021.54,4488.72,4270.77,3944.62,4654.87,4598.97,4376.41,1693,1685,10.092,0,0,0,0,0
18,4250.77,4687.69,4324.62,4370.26,4216.41,4466.15,4097.95,4025.64,4488.72,4272.82,3944.62,4657.95,4598.97,4382.56,1693,1684,10.1,0,0,0,0,0
19,4250.77,4686.67,4324.62,4370.26,4216.41,4463.08,4094.87,4031.79,4488.72,4272.82,3944.62,4654.36,4598.97,4384.1,1694,1684,10.107,0,0,0,0,0
20,4250.77,4685.64,4324.62,4370.26,4216.41,4458.97,4093.33,4028.21,4488.72,4270.77,3944.62,4649.23,4598.97,4374.87,1694,1683,10.115,0,0,0,0,0
21,4250.77,4687.18,4324.62,4370.26,4216.41,4459.49,4101.54,4029.23,4488.72,4272.31,3944.62,4653.33,4598.97,4367.18,1693,1682,10.124,0,0,0,0,0
22,4250.77,4687.69,4324.62,4370.26,4216.41,4466.67,4109.74,4039.49,4488.72,4271.79,3944.62,4657.95,4598.97,4371.28,1692,1683,10.131,0,0,0,0,0
23,4250.77,4686.15,4324.62,4370.26,4216.41,4474.87,4111.79,4041.54,4488.72,4269.74,3944.62,4652.82,4598.97,4380,1692,1682,10.138,0,0,0,0,0
24,4250.77,4686.15,4324.62,4370.26,4216.41,4478.46,4114.36,4035.38,4488.72,4275.9,3944.62,4649.74,4598.97,4386.15,1689,1684,10.147,0,0,0,0,0
25,4250.77,4687.18,4324.62,4370.26,4216.41,4478.97,4113.85,4037.44,4488.72,4278.97,3944.62,4654.36,4598.97,4381.03,1690,1684,10.154,0,0,0,0,0
26,4250.77,4686.67,4324.62,4370.26,4216.41,4478.97,4109.74,4040.51,4488.72,4273.33,3944.62,4657.95,4598.97,4374.36,1687,1685,10.162,0,0,0,0,0
27,4250.77,4686.15,4324.62,4370.26,4216.41,4478.46,4106.15,4032.31,4488.72,4273.85,3944.62,4655.38,4598.97,4372.31,1686,1687,10.169,0,0,0,0,0
28,4250.77,4686.15,4324.62,4370.26,4216.41,4472.31,4100.51,4026.15,4488.72,4282.05,3944.62,4649.23,4598.97,4366.15,1685,1686,10.177,0,0,0,0,0
29,4250.77,4686.67,4324.62,4370.26,4216.41,4462.56,4097.44,4032.82,4488.72,4282.05,3944.62,4648.72,4598.97,4366.67,1683,1687,10.185,0,0,0,0,0
30,4250.77,4686.15,4324.62,4370.26,4217.95,4457.95,4096.92,4033.85,4489.74,4276.92,3944.62,4653.85,4598.97,4378.46,1682,1685,10.193,0,0,0,0,0
31,4250.77,4686.15,4324.62,4370.26,4218.46,4458.97,4092.82,4027.69,4490.77,4280.51,3944.62,4652.31,4598.97,4384.62,1681,1686,10.201,0,0,0,0,0
32,4250.77,4686.15,4324.62,4370.26,4217.95,4458.97,4094.36,4029.23,4490.26,4282.05,3944.62,4647.18,4598.97,4378.97,1681,1684,10.209,0,0,0,0,0
33,4250.77,4686.15,4324.62,4370.26,4217.44,4460,4097.44,4030.26,4490.26,4272.82,3944.62,4649.74,4598.97,4375.38,1681,1684,10.216,0,0,0,0,0
34,4250.77,4686.15,4324.62,4370.26,4217.95,4461.03,4089.74,4022.05,4490.77,4266.67,3944.62,4651.28,4598.97,4376.92,1682,1682,10.224,0,0,0,0,0
35,4250.77,4686.67,4324.62,4370.26,4217.44,4455.9,4079.49,4013.33,4490.26,4268.21,3944.62,4647.69,4598.97,4381.54,1680,1682,10.232,0,0,0,0,0
36,4250.77,4686.15,4324.62,4370.26,4217.44,4453.33,4080,4008.72,4490.26,4268.21,3944.62,4649.23,4598.97,4377.44,1682,1681,10.24,0,0,0,0,0
37,4250.77,4686.15,4324.62,4370.26,4217.44,4457.95,4086.67,4013.33,4490.77,4266.15,3944.62,4656.92,4598.97,4358.97,1681,1681,10.249,0,0,0,0,0
38,4250.77,4686.67,4324.62,4370.26,4217.44,4463.08,4094.87,4026.15,4490.77,4268.21,3944.62,4657.95,4598.97,4355.38,1681,1682,10.255,0,0,0,0,0
39,4250.77,4687.18,4324.62,4370.26,4217.44,4465.13,4097.95,4029.74,4488.72,4268.21,3944.62,4650.26,4598.97,4378.46,1681,1681,10.264,0,0,0,0,0
40,4250.77,4685.64,4324.62,4370.26,4217.44,4463.08,4092.31,4020,4487.18,4266.67,3944.62,4650.26,4598.97,4395.38,1680,1683,10.271,0,0,0,0,0
41,4250.77,4686.15,4324.62,4370.26,4217.44,4458.46,4087.69,4012.31,4488.21,4267.69,3944.62,4655.9,4598.97,4392.31,1681,1684,10.28,0,0,0,0,0
42,4250.77,4688.21,4324.62,4370.26,4217.44,4456.92,4089.23,4012.31,4488.72,4268.21,3944.62,4654.36,4598.97,4386.67,1680,1685,10.288,0,0,0,0,0
43,4250.77,4689.23,4324.62,4370.26,4217.44,4460,4095.9,4021.03,4488.21,4266.67,3944.62,4653.85,4598.97,4387.69,1681,1686,10.295,0,0,0,0,0
44,4250.77,4689.23,4324.62,4370.26,4217.44,4469.23,4100.51,4028.72,4488.21,4266.67,3944.62,4653.85,4598.97,4383.08,1680,1687,10.302,0,0,0,0,0
45,4250.77,4688.72,4324.62,4370.26,4217.44,4471.28,4096.41,4024.1,4488.72,4273.85,3944.62,4651.79,4598.97,4380.51,1680,1688,10.31,0,0,0,0,0
46,4250.77,4686.15,4324.62,4370.26,4217.44,4462.56,4090.77,4017.44,4488.72,4280,3944.62,4653.33,4598.97,4385.13,1680,1689,10.319,0,0,0,0,0
47,4250.77,4685.13,4324.62,4370.26,4217.44,4465.64,4091.28,4021.03,4488.72,4277.95,3944.62,4652.82,4598.97,4385.13,1680,1688,10.326,0,0,0,0,0
48,4250.77,4686.15,4324.62,4370.26,4217.44,4474.87,4095.38,4029.74,4488.72,4276.92,3944.62,4647.18,4598.97,4379.49,1679,1689,10.335,0,0,0,0,0
49,4250.77,4687.18,4324.62,4370.26,4217.44,4465.64,4094.36,4030.26,4488.72,4273.85,3944.62,4647.18,4598.97,4383.59,1680,1687,10.342,0,0,0,0,0
50,4250.77,4687.18,4324.62,4370.26,4217.44,4455.9,4092.82,4022.05,4488.72,4266.67,3944.62,4650.26,4598.97,4390.26,1680,1688,10.35,0,0,0,0,0
51,4250.77,4687.18,4324.62,4370.26,4217.44,4461.54,4094.36,4022.05,4488.72,4266.15,3944.62,4647.69,4598.97,4390.26,1680,1686,10.358,0,0,0,0,0
52,4250.77,4687.18,4324.62,4370.26,4217.44,4461.54,4095.9,4027.18,4488.72,4269.23,3944.62,4648.21,4598.97,4392.31,1680,1686,10.366,0,0,0,0,0
53,4250.77,4687.18,4324.62,4370.26,4217.44,4461.54,4096.41,4030.26,4488.72,4268.21,3944.62,4655.9,4598.97,4397.44,1681,1685,10.374,0,0,0,0,0
54,4250.77,4687.18,4324.62,4370.26,4217.44,4470.26,4101.03,4028.72,4488.72,4267.69,3944.62,4657.95,4598.97,4400.51,1680,1685,10.382,0,0,0,0,0
55,4250.77,4687.18,4324.62,4370.26,4217.44,4469.23,4103.08,4023.08,4488.72,4267.69,3944.62,4651.79,4598.97,4400.51,1682,1684,10.389,0,0,0,0,0
56,4250.77,4687.18,4324.62,4370.26,4217.44,4464.62,4096.92,4021.54,4488.72,4266.67,3944.62,4647.69,4598.97,4390.26,1680,1682,10.397,0,0,0,0,0
57,4250.77,4687.18,4324.62,4370.26,4217.44,4470.77,4094.36,4026.15,4488.72,4267.18,3944.62,4649.23,4598.97,4382.56,1682,1683,10.405,0,0,0,0,0
58,4250.77,4687.18,4324.62,4370.26,4217.44,4475.38,4098.46,4030.26,4488.72,4268.72,3944.62,4648.72,4598.97,4388.21,1682,1680,10.413,0,0,0,0,0
59,4250.77,4687.18,4324.62,4370.26,4217.44,4471.79,4100,4035.9,4488.72,4266.67,3944.62,4648.21,4598.97,4390.77,1683,1682,10.421,0,0,0,0,0
60,4250.77,4687.18,4324.62,4370.26,4217.44,4472.31,4100,4042.56,4488.72,4266.15,3944.62,4649.23,4598.97,4389.74,1685,1680,10.428,0,0,0,0,0
61,4250.77,4687.18,4324.62,4370.26,4217.44,4473.85,4099.49,4038.97,4488.72,4276.41,3944.62,4647.69,4598.97,4389.23,1685,1680,10.436,0,0,0,0,0
62,4250.77,4687.18,4324.62,4370.26,4217.44,4472.82,4097.95,4035.38,4488.72,4283.08,3944.62,4648.72,4598.97,4380.51,1686,1680,10.444,0,0,0,0,0
63,4250.77,4687.18,4324.62,4370.26,4217.44,4474.87,4101.54,4037.44,4488.72,4272.31,3944.62,4654.36,4598.97,4382.56,1686,1682,10.452,0,0,0,0,0
64,4250.77,4687.69,4324.62,4370.26,4217.44,4475.9,4104.62,4030.26,4488.72,4263.59,3944.62,4652.31,4598.97,4392.31,1687,1681,10.46,0,0,0,0,0
65,4250.77,4686.67,4324.62,4370.26,4217.44,4475.9,4101.03,4022.56,4488.72,4274.87,3944.62,4647.18,4598.97,4375.38,1687,1683,10.468,0,0,0,0,0
66,4250.77,4685.64,4324.62,4370.26,4217.44,4475.9,4096.92,4028.21,4488.72,4285.64,3944.62,4650.77,4598.97,4370.26,1688,1683,10.475,0,0,0,0,0
67,4250.77,4685.13,4324.62,4370.26,4217.44,4474.87,4099.49,4035.9,4489.23,4277.44,3944.62,4654.87,4598.97,4395.38,1687,1684,10.483,0,0,0,0,0
68,4250.77,4685.13,4324.62,4370.26,4217.44,4472.82,4102.05,4037.44,4490.26,4267.69,3944.62,4650.26,4598.97,4401.03,1688,1685,10.491,0,0,0,0,0
69,4250.77,4686.67,4324.62,4370.26,4217.44,4471.28,4104.1,4041.03,4490.77,4268.21,3944.62,4646.15,4598.97,4389.74,1689,1684,10.499,0,0,0,0,0
70,4250.77,4688.21,4324.62,4370.26,4217.44,4472.82,4109.23,4049.74,4490.26,4269.23,3944.62,4649.74,4598.97,4394.87,1688,1686,10.507,0,0,0,0,0
71,4250.77,4688.21,4324.62,4370.26,4217.44,4474.36,4110.26,4052.31,4490.26,4266.67,3944.62,4655.9,4598.97,4397.44,1690,1685,10.514,0,0,0,0,0
72,4250.77,4688.21,4324.62,4370.26,4217.44,4474.36,4108.72,4048.21,4490.77,4266.15,3944.62,4655.38,4598.97,4395.38,1690,1686,10.522,0,0,0,0,0
73,4250.77,4689.23,4324.62,4370.26,4217.44,4475.38,4111.79,4047.18,4490.77,4268.21,3944.62,4649.74,4598.97,4396.92,1690,1686,10.53,0,0,0,0,0
74,4250.77,4689.23,4324.62,4370.26,4217.44,4475.38,4111.79,4046.15,4489.23,4272.82,3944.62,4646.67,4598.97,4381.54,1690,1686,10.538,0,0,0,0,0
75,4250.77,4688.72,4324.62,4370.26,4217.44,4473.85,4106.67,4042.56,4488.21,4278.97,3944.62,4649.74,4598.97,4369.23,1691,1686,10.546,0,0,0,0,0
76,4250.77,4689.23,4324.62,4370.26,4217.44,4474.36,4106.67,4044.1,4488.72,4278.46,3944.62,4653.85,4598.97,4381.03,1691,1686,10.554,0,0,0,0,0
77,4250.77,4688.21,4324.62,4370.26,4217.44,4476.41,4112.82,4051.79,4488.72,4277.44,3944.62,4655.38,4598.97,4388.21,1692,1686,10.561,0,0,0,0,0
78,4250.77,4686.67,4324.62,4370.26,4217.44,4477.44,4112.31,4053.33,4488.72,4282.05,3944.62,4654.36,4598.97,4378.46,1692,1684,10.569,0,0,0,0,0
79,4250.77,4686.15,4324.62,4370.26,4217.44,4474.87,4108.21,4048.21,4488.72,4278.46,3944.62,4654.87,4598.97,4374.36,1691,1685,10.577,0,0,0,0,0
80,4250.77,4686.15,4324.62,4370.26,4217.95,4467.69,4102.05,4042.05,4488.72,4269.74,3944.62,4655.38,4598.97,4381.03,1692,1682,10.585,0,0,0,0,0
81,4250.77,4686.15,4324.62,4370.26,4217.44,4460,4094.87,4036.41,4488.72,4270.26,3944.62,4653.85,4598.97,4382.05,1691,1683,10.593,0,0,0,0,0
82,4250.77,4686.67,4324.62,4370.26,4217.44,4459.49,4094.87,4031.28,4488.72,4274.36,3944.62,4653.85,4598.97,4378.97,1694,1682,10.601,0,0,0,0,0
83,4250.77,4687.18,4324.62,4370.26,4218.46,4459.49,4095.38,4027.18,4488.72,4273.33,3944.62,4654.36,4598.97,4378.97,1692,1682,10.608,0,0,0,0,0
84,4250.77,4687.18,4324.1,4370.26,4219.49,4457.95,4096.92,4032.82,4488.72,4271.79,3944.62,4654.36,4598.97,4375.9,1693,1682,10.616,0,0,0,0,0
85,4250.77,4687.69,4324.1,4370.26,4218.46,4465.13,4103.08,4043.59,4488.72,4272.31,3944.62,4653.85,4598.97,4368.72,1692,1681,10.624,0,0,0,0,0
86,4250.77,4687.18,4324.62,4370.26,4217.95,4473.85,4107.18,4045.13,4488.72,4276.92,3944.62,4652.31,4598.97,4372.82,1693,1682,10.632,0,0,0,0,0
87,4250.77,4687.18,4324.1,4370.26,4218.46,4474.36,4104.62,4034.87,4488.72,4279.49,3944.62,4654.36,4598.97,4381.54,1692,1681,10.64,0,0,0,0,0
88,4250.77,4688.21,4324.1,4370.26,4218.46,4472.31,4100.51,4024.62,4488.72,4274.87,3944.62,4655.9,4598.97,4385.64,1692,1683,10.647,0,0,0,0,0
89,4250.77,4688.21,4325.13,4370.26,4218.46,4469.23,4094.87,4015.38,4488.72,4270.26,3944.62,4650.26,4598.97,4378.97,1691,1682,10.655,0,0,0,0,0
90,4250.77,4686.67,4324.62,4370.26,4218.46,4461.03,4089.74,4005.13,4488.72,4271.79,3944.62,4647.18,4598.97,4363.08,1690,1683,10.663,0,0,0,0,0
91,4250.77,4687.18,4322.56,4370.26,4218.46,4457.95,4087.69,4002.56,4488.72,4273.85,3944.62,4653.33,4598.97,4361.54,1690,1683,10.671,0,0,0,0,0
92,4250.77,4687.69,4322.56,4370.26,4218.46,4464.62,4089.74,4010.77,4488.72,4280,3944.62,4657.44,4598.97,4374.36,1689,1685,10.679,0,0,0,0,0
93,4250.77,4686.15,4325.13,4370.26,4218.46,4471.28,4095.9,4018.97,4488.72,4282.56,3944.62,4654.87,4598.97,4377.95,1690,1685,10.687,0,0,0,0,0
94,4250.77,4685.64,4324.62,4370.26,4218.46,4473.85,4097.44,4021.03,4488.72,4272.82,3944.62,4653.85,4598.97,4373.33,1687,1686,10.694,0,0,0,0,0
95,4250.77,4687.18,4323.08,4370.26,4218.46,4472.31,4091.79,4018.97,4488.72,4266.67,3944.62,4655.9,4598.97,4371.79,1688,1687,10.702,0,0,0,0,0
96,4250.77,4687.69,4323.59,4370.26,4218.46,4466.67,4090.26,4016.41,4488.72,4272.31,3944.62,4656.41,4598.97,4375.9,1687,1687,10.71,0,0,0,0,0
97,4250.77,4688.21,4323.59,4370.26,4218.46,4461.54,4090.26,4013.85,4488.72,4273.33,3944.62,4655.38,4598.97,4388.21,1686,1688,10.718,0,0,0,0,0
98,4250.77,4687.69,4323.08,4370.26,4218.46,4461.03,4088.72,4011.79,4488.72,4270.26,3944.62,4655.9,4598.97,4391.28,1686,1688,10.726,0,0,0,0,0
99,4250.77,4686.67,4324.1,4370.26,4218.46,4462.56,4088.72,4010.77,4488.72,4272.82,3944.62,4655.9,4598.97,4377.95,1686,1688,10.733,0,0,0,0,0
100,4250.77,4686.15,4325.13,4370.26,4218.46,4461.54,4089.74,4014.36,4488.72,4276.41,3944.62,4655.9,4598.97,4372.82,1685,1687,10.741,0,0,0,0,0
101,4250.77,4687.18,4324.1,4370.26,4218.46,4461.54,4089.74,4020,4488.72,4274.36,3944.62,4656.41,4598.97,4373.85,1685,1687,10.749,0,0,0,0,0
102,4250.77,4688.72,4323.08,4370.26,4217.95,4461.54,4088.72,4018.97,4488.72,4274.87,3944.62,4654.87,4598.97,4373.33,1683,1686,10.757,0,0,0,0,0
103,4250.77,4687.69,4323.59,4370.26,4217.44,4463.08,4087.69,4016.41,4488.72,4274.87,3944.62,4656.41,4598.97,4377.95,1683,1685,10.765,0,0,0,0,0
104,4250.77,4687.18,4323.59,4370.26,4217.44,4470.77,4093.85,4021.54,4488.72,4274.87,3944.62,4657.44,4598.97,4375.9,1682,1685,10.773,0,0,0,0,0
105,4250.77,4687.69,4323.08,4370.26,4217.44,4476.92,4104.1,4028.72,4488.72,4274.87,3944.62,4651.79,4598.97,4369.23,1683,1684,10.78,0,0,0,0,0
106,4250.77,4687.69,4323.59,4370.26,4217.44,4475.38,4105.64,4030.77,4488.72,4274.87,3944.62,4650.77,4598.97,4378.46,1682,1684,10.788,0,0,0,0,0
107,4250.77,4687.18,4323.59,4370.26,4217.44,4474.36,4104.1,4028.72,4488.72,4274.36,3944.62,4656.41,4598.97,4391.28,1683,1684,10.796,0,0,0,0,0
108,4250.77,4687.18,4323.59,4370.26,4217.44,4476.41,4105.13,4030.26,4488.72,4274.36,3944.62,4653.85,4598.97,4389.23,1683,1684,10.804,0,0,0,0,0
109,4250.77,4687.18,4323.59,4370.26,4217.44,4476.92,4101.54,4031.79,4488.72,4275.38,3944.62,4646.15,4598.97,4388.72,1683,1685,10.812,0,0,0,0,0
110,4250.77,4686.67,4323.59,4370.26,4217.44,4474.87,4093.85,4024.62,4488.72,4273.85,3944.62,4651.28,4598.97,4387.69,1684,1684,10.819,0,0,0,0,0
111,4250.77,4686.67,4323.59,4370.26,4217.44,4473.33,4091.79,4018.46,4488.72,4274.87,3944.62,4656.41,4598.97,4372.82,1682,1686,10.827,0,0,0,0,0
112,4250.77,4686.15,4323.59,4370.26,4217.44,4473.33,4094.36,4021.54,4488.72,4281.03,3944.62,4650.77,4598.97,4362.05,1684,1686,10.835,0,0,0,0,0
113,4250.77,4686.15,4323.59,4370.26,4217.44,4471.28,4091.79,4017.95,4488.72,4280,3944.62,4647.18,4598.97,4366.67,1682,1686,10.843,0,0,0,0,0
114,4250.77,4687.18,4323.59,4370.26,4217.44,4469.74,4087.69,4007.69,4488.72,4276.92,3944.62,4649.23,4598.97,4368.21,1683,1687,10.851,0,0,0,0,0
115,4250.77,4686.67,4323.59,4370.26,4217.44,4473.85,4092.31,4011.79,4488.72,4281.54,3944.62,4650.26,4598.97,4365.64,1683,1685,10.859,0,0,0,0,0
116,4250.77,4686.15,4323.59,4370.26,4217.44,4477.95,4097.95,4022.05,4488.72,4276.92,3944.62,4650.26,4598.97,4372.31,1682,1686,10.866,0,0,0,0,0
117,4250.77,4686.67,4323.59,4370.26,4217.44,4476.92,4095.9,4022.56,4488.72,4265.64,3944.62,4650.26,4598.97,4375.9,1683,1685,10.874,0,0,0,0,0
118,4250.77,4687.18,4323.59,4370.26,4217.44,4472.31,4089.23,4021.03,4488.72,4271.28,3944.62,4649.74,4598.97,4372.31,1684,1685,10.882,0,0,0,0,0
119,4250.77,4688.21,4323.59,4370.26,4217.44,4463.08,4084.1,4018.97,4488.72,4278.97,3944.62,4650.26,4598.97,4374.87,1684,1684,10.89,0,0,0,0,0
120,4250.77,4689.23,4323.59,4370.26,4217.44,4458.46,4081.54,4014.36,4488.72,4272.82,3944.62,4649.74,4598.97,4383.59,1682,1685,10.898,0,0,0,0,0
121,4250.77,4687.69,4323.59,4370.26,4217.44,4461.54,4082.05,4015.38,4488.72,4270.26,3944.62,4649.23,4598.97,4388.21,1683,1683,10.905,0,0,0,0,0
122,4250.77,4686.15,4323.59,4370.26,4217.44,4462.56,4082.56,4018.97,4488.72,4273.85,3944.62,4652.31,4598.97,4388.21,1681,1683,10.913,0,0,0,0,0
123,4250.77,4687.18,4323.59,4370.26,4217.44,4457.44,4081.54,4016.92,4488.72,4272.82,3944.62,4652.31,4598.97,4391.79,1682,1682,10.921,0,0,0,0,0
124,4250.77,4687.18,4323.59,4370.26,4217.44,4456.92,4085.13,4018.46,4488.72,4272.31,3944.62,4649.23,4598.97,4400,1681,1683,10.929,0,0,0,0,0
125,4250.77,4686.15,4323.59,4370.26,4217.44,4461.03,4093.33,4030.26,4488.72,4272.82,3944.62,4649.23,4598.97,4398.46,1683,1683,10.937,0,0,0,0,0
126,4250.77,4686.15,4323.59,4370.26,4217.44,4462.05,4096.92,4033.85,4488.72,4270.77,3944.62,4649.74,4598.97,4387.18,1683,1682,10.945,0,0,0,0,0
127,4250.77,4685.64,4323.59,4370.26,4217.44,4465.13,4097.44,4031.28,4488.72,4273.33,3944.62,4648.21,4598.97,4381.03,1683,1684,10.952,0,0,0,0,0
128,4250.77,4686.15,4323.59,4370.26,4217.44,4469.23,4099.49,4034.36,4488.72,4281.03,3944.62,4653.33,4598.97,4373.33,1684,1683,10.96,0,0,0,0,0
0,4250.77,4688.21,4323.59,4370.26,4217.44,4464.62,4096.92,4032.82,4488.72,4281.03,3944.62,4658.97,4598.97,4367.69,1684,1684,10.968,0,0,0,0,0
1,4250.77,4687.18,4323.59,4370.26,4217.44,4455.9,4089.74,4022.05,4488.72,4274.36,3944.62,4653.33,4598.97,4377.95,1684,1684,10.976,0,0,0,0,0
2,4250.77,4686.15,4323.59,4370.26,4217.44,4455.9,4088.21,4018.97,4488.72,4271.28,3944.62,4647.69,4598.97,4385.64,1684,1685,10.984,0,0,0,0,0
3,4250.77,4688.21,4323.59,4370.26,4217.44,4458.97,4087.18,4018.97,4488.72,4273.33,3944.62,4648.72,4598.97,4378.97,1685,1684,10.991,0,0,0,0,0
4,4250.77,4688.21,4323.59,4370.26,4217.44,4457.95,4086.15,4011.79,4488.72,4272.82,3944.62,4650.26,4598.97,4378.46,1684,1684,10.999,0,0,0,0,0
5,4250.77,4687.69,4323.59,4370.26,4217.44,4457.95,4089.23,4012.82,4488.72,4270.26,3944.62,4650.77,4598.97,4386.67,1686,1684,11.007,0,0,0,0,0
6,4250.77,4688.21,4323.59,4370.26,4217.44,4461.03,4091.79,4018.97,4488.72,4270.77,3944.62,4649.74,4598.97,4389.74,1685,1682,11.015,0,0,0,0,0
7,4250.77,4687.69,4323.59,4370.26,4217.44,4461.03,4091.28,4014.87,4488.72,4272.82,3944.62,4651.79,4598.97,4384.1,1686,1683,11.023,0,0,0,0,0
8,4250.77,4686.15,4323.59,4370.26,4217.44,4458.97,4091.79,4012.31,4488.72,4272.82,3944.62,4655.9,4598.97,4369.23,1686,1682,11.031,0,0,0,0,0
9,4250.77,4687.18,4323.59,4370.26,4217.44,4465.13,4093.85,4019.49,4488.72,4270.77,3944.62,4653.33,4598.97,4363.59,1685,1682,11.038,0,0,0,0,0
10,4250.77,4687.69,4323.59,4370.26,4217.44,4474.36,4095.38,4025.13,4488.72,4271.79,3944.62,4646.67,4598.97,4378.46,1686,1681,11.046,0,0,0,0,0
11,4250.77,4686.67,4323.59,4370.26,4217.44,4475.38,4096.92,4027.69,4488.72,4272.82,3944.62,4651.28,4598.97,4383.59,1685,1683,11.054,0,0,0,0,0
12,4250.77,4686.15,4323.59,4370.26,4217.44,4473.85,4101.03,4033.33,4488.72,4270.26,3944.62,4656.92,4598.97,4373.33,1685,1683,11.062,0,0,0,0,0
13,4250.77,4686.67,4323.59,4370.26,4217.44,4475.38,4105.64,4033.85,4488.72,4272.31,3944.62,4651.79,4598.97,4372.82,1684,1684,11.07,0,0,0,0,0
14,4250.77,4686.67,4323.59,4370.26,4217.44,4476.41,4106.15,4031.79,4488.72,4279.49,3944.62,4647.69,4598.97,4385.13,1686,1684,11.077,0,0,0,0,2
15,4250.77,4686.67,4323.59,4370.26,4217.44,4476.41,4106.67,4032.82,4488.72,4275.38,3944.62,4649.23,4598.97,4390.26,1685,1685,11.085,0,0,0,0,0
16,4250.77,4688.21,4323.59,4370.26,4217.44,4476.41,4107.69,4030.77,4488.72,4268.21,3944.62,4650.26,4598.97,4383.59,1687,1686,11.093,0,0,0,0,0
17,4250.77,4688.72,4323.59,4370.26,4217.44,4474.36,4105.13,4027.18,4488.72,4271.28,3944.62,4650.26,4598.97,4385.13,1686,1687,11.101,0,0,0,0,0
18,4250.77,4688.21,4323.59,4370.26,4217.44,4474.36,4104.1,4026.15,4488.72,4274.36,3944.62,4649.74,4598.97,4398.46,1688,1688,11.109,0,0,0,0,0
19,4250.77,4688.21,4323.59,4370.26,4217.44,4477.44,4107.69,4031.28,4488.72,4271.28,3944.62,4649.74,4598.97,4403.08,1689,1686,11.117,0,0,0,0,0
20,4250.77,4688.72,4323.59,4370.26,4217.44,4478.97,4108.21,4040.51,4488.72,4271.79,3944.62,4648.21,4598.97,4391.28,1688,1688,11.124,0,0,0,0,0
21,4250.77,4688.72,4323.59,4370.26,4217.44,4477.95,4111.79,4045.13,4488.72,4273.85,3944.62,4648.72,4598.97,4377.95,1690,1686,11.132,0,0,0,0,0
22,4250.77,4687.18,4323.59,4370.26,4217.44,4478.97,4118.97,4043.08,4488.72,4272.31,3944.62,4653.33,4598.97,4381.54,1690,1686,11.14,0,0,0,0,0
23,4250.77,4686.15,4323.59,4370.26,4217.44,4478.97,4115.9,4042.05,4488.72,4271.79,3944.62,4654.36,4598.97,4397.44,1693,1685,11.148,0,0,0,0,0
24,4250.77,4687.18,4323.59,4370.26,4217.44,4476.41,4106.67,4040,4488.72,4271.79,3944.62,4649.74,4598.97,4400,1692,1684,11.156,0,0,0,0,0
25,4250.77,4686.67,4323.59,4370.26,4217.44,4474.87,4103.59,4029.74,4488.72,4271.79,3944.62,4649.23,4598.97,4387.18,1694,1683,11.164,0,0,0,0,0
26,4250.77,4686.15,4323.59,4370.26,4218.46,4474.87,4103.08,4020,4488.72,4271.79,3944.62,4650.77,4598.97,4389.74,1694,1681,11.171,0,0,0,0,0
27,4250.77,4686.15,4323.59,4370.26,4218.46,4480.51,4103.08,4026.15,4488.72,4271.79,3944.62,4649.74,4598.97,4398.46,1694,1680,11.179,0,0,0,0,0
28,4250.77,4686.67,4323.59,4370.26,4218.46,4488.72,4112.31,4040.51,4488.72,4271.79,3944.62,4650.26,4598.97,4387.69,1693,1680,11.187,0,0,0,0,0
29,4250.77,4686.15,4323.59,4370.26,4218.46,4492.82,4122.56,4047.69,4488.72,4271.79,3944.62,4651.28,4598.97,4379.49,1693,1681,11.195,0,0,0,0,0
30,4250.77,4686.15,4323.59,4370.26,4218.46,4493.85,4123.59,4046.15,4488.72,4271.79,3944.62,4650.77,4598.97,4384.62,1691,1682,11.203,0,0,0,0,0
31,4250.77,4686.15,4323.59,4370.26,4218.46,4486.67,4116.92,4040,4488.72,4271.79,3944.62,4651.28,4598.97,4378.46,1691,1683,11.21,0,0,0,0,0
32,4250.77,4686.15,4323.59,4370.26,4218.46,4475.9,4108.72,4038.97,4488.72,4271.79,3944.62,4651.79,4598.97,4369.23,1689,1685,11.218,0,0,0,0,0
33,4250.77,4686.67,4323.59,4370.26,4218.46,4473.33,4107.18,4041.54,4488.72,4271.79,3944.62,4649.74,4598.97,4380.51,1689,1686,11.226,0,0,0,0,0
34,4250.77,4686.67,4323.59,4370.26,4218.46,4478.97,4109.74,4038.97,4488.72,4271.79,3944.62,4651.79,4598.97,4388.21,1688,1687,11.234,0,0,0,0,0
35,4250.77,4685.64,4323.59,4370.26,4218.46,4480,4109.23,4034.36,4488.72,4271.79,3944.62,4655.38,4598.97,4380,1688,1687,11.242,0,0,0,0,0
36,4250.77,4687.18,4323.59,4370.26,4218.46,4476.41,4104.1,4032.82,4488.72,4271.79,3944.62,4652.82,4598.97,4377.44,1686,1688,11.25,0,0,0,0,0
37,4250.77,4688.21,4323.59,4370.26,4217.95,4472.82,4101.54,4030.77,4488.72,4271.79,3944.62,4649.23,4598.97,4379.49,1687,1689,11.257,0,0,0,0,0
38,4250.77,4686.67,4323.59,4370.26,4217.44,4480,4105.64,4031.79,4488.72,4271.79,3944.62,4651.28,4598.97,4378.46,1688,1686,11.265,0,0,0,0,0
39,4250.77,4686.15,4323.59,4370.26,4217.44,4489.74,4111.28,4039.49,4488.72,4271.79,3944.62,4650.77,4598.97,4382.56,1687,1687,11.273,0,0,0,0,0
40,4250.77,4686.67,4323.59,4370.26,4217.44,4482.05,4108.21,4034.36,4488.72,4271.79,3944.62,4646.67,4598.97,4383.59,1689,1685,11.281,0,0,0,0,0
41,4250.77,4686.15,4323.59,4370.26,4217.44,4471.28,4102.56,4024.1,4488.72,4271.79,3944.62,4649.23,4598.97,4383.08,1688,1684,11.289,0,0,0,0,0
42,4250.77,4686.67,4323.59,4370.26,4217.44,4475.38,4106.67,4026.67,4488.72,4271.79,3944.62,4655.9,4598.97,4391.79,1688,1684,11.296,0,0,0,0,0
43,4250.77,4686.67,4323.59,4370.26,4217.44,4476.92,4108.72,4027.69,4488.72,4271.79,3944.62,4656.41,4598.97,4396.41,1687,1683,11.304,0,0,0,0,0
44,4250.77,4686.15,4323.59,4370.26,4217.44,4465.13,4100,4024.1,4488.72,4271.79,3944.62,4653.85,4598.97,4389.23,1688,1683,11.312,0,0,0,0,0
45,4250.77,4687.18,4323.59,4370.26,4217.44,4459.49,4095.38,4025.64,4488.72,4271.28,3944.62,4655.38,4598.97,4388.21,1686,1682,11.32,0,0,0,0,0
46,4250.77,4688.72,4323.59,4370.26,4217.44,4461.03,4097.95,4025.64,4488.72,4271.79,3944.62,4655.38,4598.97,4396.92,1687,1683,11.328,0,0,0,0,0
47,4250.77,4688.21,4323.59,4370.26,4217.44,4460.51,4095.38,4017.95,4488.72,4272.82,3944.62,4647.69,4598.97,4395.38,1686,1683,11.336,0,0,0,0,0
48,4250.77,4688.72,4323.59,4370.26,4217.44,4459.49,4093.85,4016.41,4488.72,4269.74,3944.62,4647.18,4598.97,4389.23,1685,1686,11.343,0,0,0,0,0
49,4250.77,4688.72,4323.59,4370.26,4217.44,4461.03,4098.97,4021.03,4488.72,4272.31,3944.62,4654.87,4598.97,4394.36,1685,1685,11.351,0,0,0,0,0
50,4250.77,4686.67,4323.59,4370.26,4217.44,4462.05,4096.41,4020.51,4488.72,4281.03,3944.62,4655.9,4598.97,4401.03,1683,1687,11.359,0,0,0,0,0
51,4250.77,4686.15,4323.59,4370.26,4217.44,4460.51,4090.77,4019.49,4488.72,4276.41,3944.62,4648.72,4598.97,4398.97,1684,1686,11.367,0,0,0,0,0
52,4250.77,4688.21,4323.59,4370.26,4217.44,4459.49,4092.82,4020,4488.72,4266.67,3944.62,4648.21,4598.97,4395.9,1682,1687,11.375,0,0,0,0,0
53,4250.77,4687.69,4323.59,4370.26,4217.44,4459.49,4094.36,4018.97,4488.72,4270.77,3944.62,4655.38,4598.97,4398.97,1683,1687,11.383,0,0,0,0,0
54,4250.77,4686.67,4323.59,4370.26,4217.44,4461.03,4090.77,4017.44,4488.72,4274.36,3944.62,4656.41,4598.97,4400,1682,1685,11.39,0,0,0,0,0
55,4250.77,4688.21,4323.59,4370.26,4217.44,4460,4088.72,4017.95,4488.72,4270.77,3944.62,4650.77,4598.97,4393.33,1683,1685,11.398,0,0,0,0,0
56,4250.77,4687.69,4323.59,4370.26,4217.44,4458.97,4088.72,4020.51,4488.72,4272.82,3944.62,4648.21,4598.97,4383.08,1683,1684,11.406,0,0,0,0,0
57,4250.77,4685.13,4323.59,4370.26,4217.44,4461.54,4090.26,4020.51,4488.72,4276.41,3944.62,4648.72,4598.97,4383.08,1683,1684,11.414,0,0,0,0,0
58,4250.77,4686.15,4323.59,4370.26,4217.44,4460.51,4091.28,4018.97,4488.72,4274.36,3944.62,4648.72,4598.97,4390.77,1683,1683,11.422,0,0,0,0,0
59,4250.77,4688.21,4323.59,4370.26,4217.44,4461.54,4092.82,4018.97,4488.72,4274.87,3944.62,4649.74,4598.97,4399.49,1684,1684,11.429,0,0,0,0,0
60,4250.77,4686.67,4323.59,4370.26,4217.44,4470.26,4100,4023.08,4488.72,4274.87,3944.62,4650.26,4598.97,4398.46,1684,1682,11.437,0,0,0,0,0
61,4250.77,4685.13,4323.59,4370.26,4217.44,4477.44,4107.69,4029.23,4488.72,4274.36,3944.62,4648.21,4598.97,4369.74,1683,1684,11.445,0,0,0,0,0
62,4250.77,4686.67,4323.59,4370.26,4217.44,4476.41,4109.23,4035.9,4488.72,4275.38,3944.62,4651.79,4598.97,4352.31,1684,1684,11.453,0,0,0,0,0
63,4250.77,4689.23,4323.59,4370.26,4217.44,4472.31,4108.21,4042.56,4488.72,4274.36,3944.62,4655.9,4598.97,4373.85,1683,1684,11.461,0,0,0,0,0
64,4250.77,4688.72,4323.59,4370.26,4217.44,4477.44,4112.31,4047.18,4488.72,4274.36,3944.62,4652.82,4598.97,4393.85,1683,1685,11.468,0,0,0,0,0
65,4250.77,4686.67,4323.59,4370.26,4217.44,4487.18,4119.49,4052.31,4488.21,4278.46,3944.62,4647.69,4598.97,4387.18,1683,1685,11.476,0,0,0,0,0
66,4250.77,4686.15,4323.59,4370.26,4217.44,4492.82,4126.67,4063.08,4487.69,4281.03,3944.62,4648.72,4598.97,4380,1682,1687,11.484,0,0,0,0,0
67,4250.77,4687.69,4323.59,4370.26,4217.44,4497.95,4137.44,4076.41,4489.23,4278.97,3944.62,4654.36,4598.97,4385.64,1682,1687,11.492,0,0,0,0,0
68,4250.77,4687.18,4323.59,4370.26,4217.44,4505.64,4145.13,4082.05,4489.74,4277.44,3944.62,4655.9,4598.97,4394.87,1682,1687,11.5,0,0,0,0,0
69,4250.77,4687.18,4323.59,4370.26,4217.44,4507.69,4143.59,4078.97,4489.23,4278.46,3944.62,4655.38,4598.97,4401.03,1682,1687,11.508,0,0,0,0,0
70,4250.77,4687.18,4323.59,4370.26,4217.44,4507.18,4143.59,4078.97,4490.26,4281.03,3944.62,4656.92,4598.97,4396.92,1682,1688,11.515,0,0,0,0,0
71,4250.77,4687.18,4323.59,4370.26,4217.44,4509.74,4151.79,4087.69,4491.28,4276.92,3944.62,4656.41,4598.97,4402.05,1682,1686,11.523,0,0,0,0,0
72,4250.77,4687.18,4323.59,4370.26,4217.44,4508.72,4154.87,4092.31,4490.26,4268.72,3944.62,4651.28,4598.97,4407.69,1682,1687,11.531,0,0,0,0,0
73,4250.77,4687.18,4323.59,4370.26,4217.44,4507.18,4152.82,4088.72,4490.26,4268.72,3944.62,4652.31,4598.97,4403.08,1684,1685,11.538,0,0,0,0,0
74,4250.77,4687.18,4323.59,4370.26,4217.44,4509.74,4153.85,4088.72,4490.77,4270.26,3944.62,4656.92,4598.97,4407.69,1682,1684,11.546,0,0,0,0,0
75,4250.77,4687.18,4323.59,4370.26,4217.44,4510.26,4155.9,4092.82,4489.74,4266.15,3944.62,4656.41,4598.97,4417.44,1683,1685,11.554,0,0,0,0,0
76,4250.77,4687.18,4323.59,4370.26,4217.44,4508.21,4153.85,4091.28,4487.69,4271.79,3944.62,4655.9,4598.97,4413.85,1683,1682,11.561,0,0,0,0,0
77,4250.77,4687.18,4323.59,4370.26,4217.44,4507.69,4152.82,4088.72,4487.18,4281.03,3944.62,4651.28,4598.97,4399.49,1682,1683,11.569,0,0,0,0,0
78,4250.77,4687.18,4323.59,4370.26,4217.44,4508.21,4154.87,4091.79,4488.72,4273.85,3944.62,4648.21,4598.97,4390.77,1683,1682,11.577,0,0,0,0,4
79,4250.77,4687.18,4323.59,4370.26,4217.44,4506.67,4153.33,4090.77,4488.72,4266.15,3944.62,4652.82,4598.97,4386.67,1682,1681,11.585,0,0,0,0,0
80,4250.77,4687.18,4323.59,4370.26,4217.44,4507.69,4151.28,4084.1,4488.21,4270.77,3944.62,4653.85,4598.97,4385.64,1682,1681,11.593,0,0,0,0,0
81,4250.77,4687.18,4323.59,4370.26,4217.44,4507.18,4151.28,4081.03,4488.72,4278.46,3944.62,4648.21,4598.97,4389.74,1682,1682,11.6,0,0,0,0,0
82,4250.77,4687.18,4323.59,4370.26,4217.44,4506.15,4151.28,4082.05,4488.72,4280.51,3944.62,4647.69,4598.97,4396.92,1683,1681,11.608,0,0,0,0,0
83,4250.77,4687.18,4323.59,4370.26,4217.44,4514.36,4156.41,4083.59,4488.72,4274.87,3944.62,4651.79,4598.97,4395.9,1684,1683,11.616,0,0,0,0,0
84,4250.77,4687.18,4323.59,4370.26,4217.44,4525.64,4168.72,4088.21,4488.72,4270.77,3944.62,4654.36,4598.97,4386.67,1685,1682,11.624,0,0,0,0,0
85,4250.77,4687.18,4323.59,4370.26,4217.44,4525.64,4173.33,4095.9,4488.72,4272.31,3944.62,4655.38,4598.97,4388.72,1686,1684,11.632,0,0,0,0,0
86,4250.77,4687.18,4323.59,4370.26,4217.44,4523.08,4169.74,4104.1,4488.72,4274.87,3944.62,4654.87,4598.97,4395.38,1687,1684,11.64,0,0,0,0,0
87,4250.77,4687.18,4323.59,4370.26,4217.44,4525.64,4174.87,4115.38,4488.72,4279.49,3944.62,4653.85,4598.97,4396.92,1689,1687,11.647,0,0,0,0,0
88,4250.77,4686.67,4323.59,4370.26,4217.44,4526.15,4184.62,4120.51,4488.72,4283.08,3944.62,4655.9,4598.97,4401.03,1689,1687,11.655,0,0,0,0,0
89,4250.77,4687.69,4323.59,4370.26,4217.44,4525.64,4184.62,4115.38,4488.72,4273.85,3944.62,4656.41,4598.97,4402.05,1690,1690,11.663,0,0,0,0,0
90,4250.77,4689.23,4323.59,4370.26,4217.44,4525.13,4179.49,4115.38,4488.72,4265.13,3944.62,4651.28,4598.97,4395.38,1691,1688,11.671,0,0,0,0,0
91,4250.77,4687.69,4323.59,4370.26,4217.44,4525.13,4180.51,4121.03,4488.72,4266.67,3944.62,4649.74,4598.97,4394.36,1691,1689,11.679,0,0,0,0,0
92,4250.77,4686.15,4323.59,4370.26,4217.44,4531.79,4184.1,4116.92,4488.72,4268.21,3944.62,4655.38,4598.97,4400,1692,1688,11.686,0,0,0,0,0
93,4250.77,4687.18,4323.59,4370.26,4217.44,4536.41,4180.51,4109.23,4488.72,4267.18,3944.62,4656.41,4598.97,4394.36,1693,1688,11.694,0,0,0,0,0
94,4250.77,4687.18,4323.59,4370.26,4217.44,4528.21,4172.82,4110.26,4488.72,4267.69,3944.62,4651.79,4598.97,4385.13,1694,1688,11.702,0,0,0,0,0
95,4250.77,4685.64,4323.59,4370.26,4217.44,4520.51,4167.69,4112.31,4488.72,4268.21,3944.62,4652.31,4598.97,4387.18,1695,1685,11.71,0,0,0,0,0
96,4250.77,4686.67,4323.59,4370.26,4217.44,4524.62,4170.26,4112.31,4488.72,4267.18,3944.62,4653.85,4598.97,4398.46,1694,1685,11.718,0,0,0,0,0
97,4250.77,4688.72,4323.59,4370.26,4217.44,4527.69,4172.31,4111.79,4488.72,4267.18,3944.62,4652.31,4598.97,4410.26,1696,1682,11.726,0,0,0,0,0
98,4250.77,4687.18,4323.59,4370.26,4217.44,4525.13,4169.74,4108.21,4488.72,4267.69,3944.62,4652.31,4598.97,4409.23,1696,1681,11.733,0,0,0,0,0
99,4250.77,4686.15,4323.59,4370.26,4217.44,4525.13,4167.69,4103.59,4488.72,4267.18,3944.62,4653.33,4598.97,4398.97,1695,1679,11.741,0,0,0,0,0
100,4250.77,4687.18,4323.59,4370.26,4217.44,4523.59,4167.69,4095.9,4488.72,4267.69,3944.62,4651.79,4598.97,4398.46,1694,1680,11.749,0,0,0,0,0
101,4250.77,4687.69,4323.59,4370.26,4217.44,4523.59,4169.23,4091.79,4488.72,4267.18,3944.62,4649.74,4598.97,4395.38,1694,1679,11.757,0,0,0,0,0
102,4250.77,4686.15,4323.59,4370.26,4217.44,4523.59,4169.23,4097.44,4488.72,4266.67,3944.62,4652.82,4598.97,4379.49,1692,1679,11.765,0,0,0,0,0
103,4250.77,4686.15,4323.59,4370.26,4217.44,4513.85,4157.44,4096.92,4488.72,4269.74,3944.62,4656.41,4598.97,4371.79,1692,1679,11.772,0,0,0,0,0
104,4250.77,4686.67,4323.59,4370.26,4217.44,4505.13,4142.56,4083.59,4488.72,4273.85,3944.62,4654.36,4598.97,4381.03,1689,1680,11.78,0,0,0,0,0
105,4250.77,4686.15,4323.59,4370.26,4217.44,4503.59,4137.95,4073.85,4488.72,4274.36,3944.62,4653.85,4598.97,4381.54,1689,1682,11.788,0,0,0,0,0
106,4250.77,4686.67,4323.59,4370.26,4217.95,4498.46,4139.49,4072.82,4488.72,4271.28,3944.62,4656.92,4598.97,4366.15,1688,1682,11.796,0,0,0,0,0
107,4250.77,4688.21,4323.59,4370.26,4216.92,4497.95,4142.56,4077.44,4488.72,4273.33,3944.62,4652.82,4598.97,4357.44,1687,1684,11.804,0,0,0,0,0
108,4250.77,4688.21,4323.59,4370.26,4215.9,4504.1,4148.72,4082.56,4488.72,4281.03,3944.62,4649.23,4598.97,4366.67,1687,1684,11.812,0,0,0,0,0
109,4250.77,4687.18,4323.59,4370.26,4216.41,4505.13,4150.77,4082.56,4488.72,4278.46,3944.62,4652.82,4598.97,4388.21,1686,1685,11.819,0,0,0,0,0
110,4250.77,4687.69,4323.59,4370.26,4217.44,4502.56,4150.77,4084.62,4488.72,4266.15,3944.62,4652.31,4598.97,4397.44,1687,1685,11.827,0,0,0,0,0
111,4250.77,4687.69,4323.59,4370.26,4217.44,4506.15,4153.33,4090.77,4488.72,4264.62,3944.62,4649.23,4598.97,4385.64,1688,1684,11.835,0,0,0,0,0
112,4250.77,4687.18,4323.59,4370.26,4216.92,4509.74,4154.36,4092.31,4488.72,4267.18,3944.62,4652.82,4598.97,4377.95,1689,1684,11.843,0,0,0,0,0
113,4250.77,4686.67,4323.59,4370.26,4217.44,4503.59,4151.79,4090.77,4488.72,4266.67,3944.62,4657.44,4598.97,4381.54,1689,1684,11.851,0,0,0,0,0
114,4250.77,4685.64,4323.59,4370.26,4217.44,4496.92,4150.26,4090.77,4488.72,4276.41,3944.62,4657.44,4598.97,4385.64,1691,1683,11.858,0,0,0,0,0
115,4250.77,4685.64,4323.59,4370.26,4217.44,4502.05,4150.77,4090.26,4488.72,4282.56,3944.62,4653.33,4598.97,4381.54,1689,1683,11.866,0,0,0,0,0
116,4250.77,4685.13,4323.59,4370.26,4217.44,4509.23,4153.33,4089.23,4488.72,4271.79,3944.62,4649.23,4598.97,4371.79,1689,1684,11.874,0,0,0,0,0
117,4250.77,4685.13,4323.59,4370.26,4217.44,4508.21,4154.87,4090.77,4488.72,4266.67,3944.62,4650.26,4598.97,4365.64,1689,1682,11.882,0,0,0,0,0
118,4250.77,4687.18,4323.59,4370.26,4217.44,4507.18,4153.85,4090.26,4488.72,4272.31,3944.62,4652.31,4598.97,4366.15,1687,1684,11.89,0,0,0,0,0
119,4250.77,4687.69,4323.59,4370.26,4217.44,4507.18,4151.28,4088.72,4488.72,4272.31,3944.62,4649.23,4598.97,4367.69,1688,1684,11.898,0,0,0,0,0
120,4250.77,4685.64,4323.59,4370.26,4217.44,4509.74,4154.87,4091.28,4488.72,4269.74,3944.62,4648.21,4598.97,4373.33,1685,1685,11.905,0,0,0,0,0
121,4250.77,4685.64,4323.59,4370.26,4217.44,4521.03,4167.18,4097.95,4488.72,4271.28,3944.62,4650.26,4598.97,4385.64,1685,1686,11.913,0,0,0,0,0
122,4250.77,4686.67,4323.59,4370.26,4217.44,4524.62,4168.72,4098.46,4488.72,4272.31,3944.62,4653.33,4598.97,4385.13,1684,1686,11.921,0,0,0,0,0
123,4250.77,4687.18,4323.59,4370.26,4217.44,4511.79,4155.9,4091.28,4488.72,4270.77,3944.62,4655.9,4598.97,4376.41,1683,1686,11.929,0,0,0,0,0
124,4250.77,4687.69,4323.59,4370.26,4217.44,4505.13,4151.79,4089.23,4488.72,4272.31,3944.62,4656.41,4598.97,4371.28,1683,1686,11.937,0,0,0,0,0
125,4250.77,4686.67,4323.59,4370.26,4217.44,4509.74,4155.38,4091.28,4488.72,4280.51,3944.62,4654.36,4598.97,4366.15,1682,1686,11.945,0,0,0,0,0
126,4250.77,4686.15,4323.59,4370.26,4217.44,4509.74,4152.31,4085.64,4488.72,4281.54,3944.62,4651.28,4598.97,4366.15,1682,1685,11.952,0,0,0,0,0
127,4250.77,4686.67,4323.08,4370.26,4217.44,4507.18,4148.72,4077.44,4488.72,4270.77,3944.62,4648.72,4598.97,4371.79,1681,1685,11.96,0,0,0,0,0
128,4250.77,4686.15,4323.59,4370.26,4217.44,4508.72,4152.82,4076.41,4488.72,4267.69,3944.62,4649.23,4598.97,4367.69,1681,1683,11.968,0,0,0,0,0
0,4250.77,4686.67,4323.59,4370.26,4217.44,4511.79,4154.36,4078.46,4488.72,4272.82,3944.62,4648.21,4598.97,4354.87,1680,1685,11.976,0,0,0,0,0
1,4250.77,4688.72,4322.56,4370.26,4217.44,4516.92,4151.28,4074.87,4488.72,4272.31,3944.62,4649.23,4598.97,4352.31,1682,1683,11.984,0,0,0,0,0
2,4250.77,4688.21,4325.13,4370.26,4217.44,4521.03,4152.82,4075.38,4488.72,4270.26,3944.62,4653.85,4598.97,4358.97,1680,1682,11.991,0,0,0,0,0
3,4250.77,4687.18,4327.69,4370.26,4217.95,4516.92,4152.31,4080.51,4488.72,4272.82,3944.62,4652.31,4598.97,4356.41,1682,1683,11.999,0,0,0,0,0
4,4250.77,4686.67,4324.62,4370.26,4219.49,4504.62,4141.54,4070.77,4488.72,4272.82,3944.62,4648.21,4598.97,4347.18,1682,1683,12.007,0,0,0,0,0
5,4250.77,4686.67,4322.56,4370.26,4218.46,4495.38,4130.26,4056.41,4488.72,4270.77,3944.62,4651.79,4598.97,4348.21,1682,1685,12.015,0,0,0,0,0
6,4250.77,4686.15,4324.62,4370.26,4216.92,4500.51,4135.9,4066.15,4488.72,4271.28,3944.62,4656.41,4598.97,4360,1682,1685,12.023,0,0,0,0,0
7,4250.77,4686.67,4324.62,4370.26,4216.92,4507.18,4143.59,4076.41,4488.72,4272.31,3944.62,4655.9,4598.97,4365.13,1682,1686,12.03,0,0,0,0,0
8,4250.77,4686.15,4323.08,4370.26,4216.92,4504.62,4137.95,4066.15,4488.72,4271.28,3944.62,4655.38,4598.97,4358.97,1681,1687,12.038,0,0,0,0,0
9,4250.77,4686.15,4323.08,4370.26,4216.92,4502.56,4134.87,4065.13,4488.72,4270.77,3944.62,4656.41,4598.97,4351.28,1682,1688,12.046,0,0,0,0,0
10,4250.77,4686.67,4323.59,4370.26,4216.92,4506.15,4143.08,4076.41,4488.72,4275.9,3944.62,4656.41,4598.97,4354.36,1681,1689,12.054,0,0,0,0,0
11,4250.77,4688.21,4323.59,4370.26,4216.92,4506.67,4151.28,4080,4488.21,4282.56,3944.62,4655.9,4598.97,4360.51,1681,1688,12.062,0,0,0,0,0
12,4250.77,4688.21,4323.08,4370.26,4216.92,4506.67,4156.92,4082.56,4489.23,4281.03,3944.62,4655.9,4598.97,4366.15,1680,1689,12.07,0,0,0,0,0
13,4250.77,4687.18,4324.1,4370.26,4216.92,4508.72,4153.85,4083.08,4490.26,4277.95,3944.62,4656.92,4598.97,4378.46,1681,1688,12.077,0,0,0,0,3
14,4250.77,4687.18,4325.13,4370.26,4217.44,4506.15,4147.18,4081.54,4489.74,4281.54,3944.62,4654.36,4598.97,4381.54,1681,1688,12.086,0,0,0,0,0
15,4250.77,4687.18,4324.1,4370.26,4217.44,4506.15,4151.79,4089.74,4489.23,4278.97,3944.62,4649.23,4598.97,4366.67,1681,1687,12.093,0,0,0,0,0
16,4250.77,4687.18,4323.08,4370.26,4218.46,4508.21,4158.46,4096.92,4489.74,4269.74,3944.62,4647.69,4598.97,4361.03,1680,1686,12.101,0,0,0,0,0
17,4250.77,4687.18,4323.59,4370.26,4218.97,4506.67,4154.87,4090.77,4489.23,4268.21,3944.62,4648.72,4598.97,4368.21,1679,1686,12.109,0,0,0,0,0
18,4250.77,4687.18,4323.59,4370.26,4217.95,4505.13,4148.21,4083.59,4488.72,4277.44,3944.62,4648.72,4598.97,4362.56,1679,1684,12.117,0,0,0,0,0
19,4250.77,4687.18,4323.08,4370.26,4217.44,4502.56,4144.1,4078.46,4488.72,4278.46,3944.62,4648.72,4598.97,4356.41,1678,1684,12.124,0,0,0,0,0
20,4250.77,4687.18,4323.59,4370.26,4217.44,4497.44,4136.92,4070.77,4488.72,4269.74,3944.62,4649.23,4598.97,4367.18,1680,1683,12.132,0,0,0,0,0
21,4250.77,4687.18,4323.59,4370.26,4217.95,4493.85,4134.87,4066.15,4488.72,4268.21,3944.62,4650.77,4598.97,4375.38,1678,1683,12.14,0,0,0,0,0
22,4250.77,4687.18,4323.59,4370.26,4217.44,4493.85,4136.92,4065.64,4488.72,4272.82,3944.62,4653.85,4598.97,4376.41,1680,1683,12.148,0,0,0,0,0
23,4250.77,4687.18,4323.59,4370.26,4217.44,4498.46,4136.92,4069.74,4488.72,4272.82,3944.62,4655.38,4598.97,4380.51,1680,1683,12.156,0,0,0,0,0
24,4250.77,4687.18,4323.59,4370.26,4217.44,4507.18,4141.54,4075.9,4488.72,4272.31,3944.62,4656.92,4598.97,4380.51,1682,1684,12.163,0,0,0,0,0
25,4250.77,4687.18,4323.59,4370.26,4217.44,4508.21,4140.51,4071.28,4488.72,4274.36,3944.62,4656.41,4598.97,4370.26,1683,1684,12.171,0,0,0,0,0
26,4250.77,4687.18,4323.59,4370.26,4217.44,4498.46,4135.9,4058.97,4488.72,4275.9,3944.62,4654.36,4598.97,4361.03,1685,1685,12.179,0,0,0,0,0
27,4250.77,4687.18,4323.59,4370.26,4217.44,4493.33,4135.9,4059.49,4488.72,4280.51,3944.62,4655.38,4598.97,4356.92,1685,1686,12.187,0,0,0,0,0
28,4250.77,4687.18,4323.59,4370.26,4217.44,4493.33,4132.31,4061.54,4488.72,4281.54,3944.62,4656.92,4598.97,4353.85,1686,1688,12.195,0,0,0,0,0
29,4250.77,4687.69,4323.59,4370.26,4217.44,4489.74,4122.56,4052.82,4488.72,4270.77,3944.62,4650.77,4598.97,4354.87,1688,1688,12.203,0,0,0,0,0
30,4250.77,4686.67,4323.59,4370.26,4217.44,4488.72,4118.97,4052.31,4488.72,4266.15,3944.62,4647.69,4598.97,4366.67,1688,1690,12.21,0,0,0,0,0
31,4250.77,4687.18,4323.59,4370.26,4217.95,4489.23,4124.62,4061.54,4488.72,4270.26,3944.62,4650.26,4598.97,4378.46,1691,1688,12.218,0,0,0,0,0
32,4250.77,4688.21,4323.59,4370.26,4217.44,4483.08,4121.54,4057.44,4488.72,4274.87,3944.62,4650.26,4598.97,4381.54,1690,1688,12.226,0,0,0,0,0
33,4250.77,4687.18,4323.59,4370.26,4217.44,4472.82,4107.69,4044.62,4488.72,4278.46,3944.62,4648.21,4598.97,4385.13,1692,1687,12.234,0,0,0,0,0
34,4250.77,4685.13,4323.59,4370.26,4218.46,4470.77,4106.67,4044.1,4488.72,4283.08,3944.62,4648.21,4598.97,4378.46,1693,1686,12.242,0,0,0,0,0
35,4250.77,4685.64,4323.59,4370.26,4218.97,4482.05,4121.54,4055.9,4488.72,4279.49,3944.62,4650.77,4598.97,4357.95,1694,1686,12.249,0,0,0,0,0
36,4250.77,4687.69,4323.59,4370.26,4217.44,4489.74,4129.74,4062.56,4488.72,4269.74,3944.62,4654.87,4598.97,4357.44,1695,1684,12.257,0,0,0,0,0
37,4250.77,4687.69,4323.59,4370.26,4217.44,4480,4124.1,4056.41,4488.72,4268.21,3944.62,4656.41,4598.97,4369.74,1696,1683,12.265,0,0,0,0,0
