COUNTER,AF3,F7,F3,FC5,T7,P7,O1,O2,P8,T8,FC6,F4,F8,AF4,GYROX,GYROY,TIMESTAMP,FUNC_ID,FUNC_VALUE,MARKER,SYNC_SIGNAL,STIM,
105,4267.69,4695.9,4333.33,4369.23,4232.31,4440.51,4087.18,3993.85,4501.03,4264.62,3944.62,4665.64,4602.05,4360.51,1684,1683,9.096,0,0,0,0,0
106,4267.69,4696.41,4331.79,4369.23,4232.31,4453.85,4103.08,4003.08,4507.18,4264.62,3944.62,4665.64,4605.64,4367.69,1685,1683,9.112,0,0,0,0,0
107,4267.69,4695.9,4332.31,4369.23,4232.31,4465.13,4112.82,4017.95,4498.97,4264.62,3944.62,4665.64,4603.59,4376.92,1683,1682,9.112,0,0,0,0,0
108,4267.69,4693.85,4334.87,4369.23,4232.31,4451.79,4095.9,4007.18,4497.95,4264.62,3944.62,4665.64,4603.08,4365.64,1685,1683,9.127,0,0,0,0,0
109,4267.69,4695.38,4336.41,4369.23,4232.31,4439.49,4087.18,3989.74,4505.13,4264.62,3944.62,4665.64,4605.13,4356.41,1685,1682,9.127,0,0,0,0,0
110,4267.69,4698.46,4335.9,4369.23,4232.31,4446.67,4094.36,3991.28,4506.15,4264.62,3944.62,4665.64,4605.13,4365.64,1684,1684,9.143,0,0,0,0,0
111,4267.69,4697.95,4335.9,4369.23,4232.31,4450.77,4096.41,4002.56,4503.59,4264.62,3944.62,4665.64,4604.1,4369.74,1686,1684,9.143,0,0,0,0,0
112,4267.69,4697.44,4335.9,4369.23,4232.31,4446.67,4092.31,4003.08,4500.51,4264.62,3944.62,4665.64,4604.1,4360.51,1685,1686,9.158,0,0,0,0,0
113,4267.69,4698.97,4335.9,4369.23,4232.31,4449.23,4090.26,3991.79,4498.46,4264.62,3944.62,4665.64,4604.62,4353.33,1686,1687,9.158,0,0,0,0,0
114,4267.69,4698.97,4335.9,4369.23,4232.31,4451.28,4090.77,3987.69,4502.05,4264.62,3944.62,4665.64,4603.08,4355.9,1686,1686,9.174,0,0,0,0,0
115,4267.69,4698.97,4335.9,4369.23,4232.31,4445.13,4091.79,3990.77,4507.18,4264.62,3944.62,4665.64,4604.62,4363.08,1686,1686,9.174,0,0,0,0,0
116,4267.69,4698.97,4335.9,4369.23,4232.31,4442.05,4091.79,3992.31,4502.56,4264.62,3944.62,4665.64,4609.74,4368.72,1686,1685,9.19,0,0,0,0,0
117,4267.69,4697.95,4335.9,4369.23,4232.31,4449.23,4094.87,3996.41,4494.87,4264.62,3944.62,4665.64,4611.28,4373.85,1686,1685,9.19,0,0,0,0,0
118,4267.69,4697.95,4335.9,4369.23,4232.31,4452.31,4097.95,4003.59,4493.85,4264.62,3944.62,4665.64,4610.26,4377.95,1685,1683,9.205,0,0,0,0,0
119,4267.69,4697.44,4335.9,4369.23,4232.31,4444.1,4091.28,4000.51,4497.95,4264.62,3944.62,4665.64,4614.36,4369.23,1686,1684,9.205,0,0,0,0,0
120,4267.69,4695.9,4335.9,4369.23,4232.31,4441.54,4089.23,3990.77,4500,4264.62,3944.62,4665.64,4614.87,4363.08,1685,1681,9.221,0,0,0,0,0
121,4267.69,4694.87,4335.9,4369.23,4232.31,4448.21,4094.87,3989.74,4497.95,4264.62,3944.62,4665.64,4612.82,4374.36,1684,1682,9.221,0,0,0,0,0
122,4267.69,4694.87,4335.9,4369.23,4232.31,4448.72,4088.72,3989.74,4498.46,4264.62,3944.62,4665.64,4615.38,4371.79,1685,1681,9.237,0,0,0,0,0
123,4267.69,4694.87,4335.9,4369.23,4232.31,4441.54,4079.49,3985.13,4500,4264.62,3944.62,4665.64,4612.31,4355.9,1683,1681,9.237,0,0,0,0,0
124,4267.69,4695.38,4335.9,4369.23,4232.31,4449.23,4088.72,3990.77,4499.49,4264.62,3944.62,4665.64,4602.56,4364.1,1685,1681,9.252,0,0,0,0,0
125,4267.69,4694.87,4335.9,4369.23,4232.31,4463.59,4100.51,4001.54,4497.95,4264.62,3944.62,4665.64,4598.97,4379.49,1684,1683,9.252,0,0,0,0,0
126,4267.69,4695.9,4335.9,4369.23,4232.31,4456.41,4094.36,3995.9,4503.08,4264.62,3944.62,4665.64,4605.64,4368.72,1685,1684,9.268,0,0,0,0,0
127,4267.69,4699.49,4335.9,4369.23,4232.31,4445.13,4088.21,3985.13,4506.15,4264.62,3944.62,4665.64,4616.41,4357.44,1685,1685,9.268,0,0,0,0,0
128,4267.69,4701.54,4335.9,4369.23,4232.31,4455.38,4093.33,3989.74,4497.95,4264.62,3944.62,4665.64,4614.36,4372.31,1686,1686,9.283,0,0,0,0,0
0,4267.69,4701.54,4335.9,4369.23,4232.31,4460.51,4091.28,3992.82,4492.82,4264.62,3944.62,4665.64,4601.54,4382.05,1685,1686,9.283,0,0,0,0,0
1,4267.69,4701.54,4335.9,4369.23,4232.31,4442.56,4078.46,3980.51,4494.87,4264.62,3944.62,4665.64,4604.62,4371.79,1685,1686,9.299,0,0,0,0,0
2,4267.69,4701.03,4335.9,4369.23,4232.31,4438.97,4077.95,3978.97,4494.36,4264.62,3944.62,4665.64,4617.95,4369.74,1685,1685,9.299,0,0,0,0,0
3,4267.69,4700.51,4335.9,4369.23,4232.31,4457.95,4098.97,4001.03,4499.49,4264.62,3944.62,4665.64,4616.92,4386.15,1684,1687,9.315,0,0,0,0,0
4,4267.69,4700.51,4335.9,4369.23,4232.31,4464.62,4107.69,4011.28,4505.64,4264.62,3944.62,4665.64,4611.28,4388.72,1686,1685,9.315,0,0,0,0,0
5,4267.69,4700.51,4335.9,4369.23,4232.31,4456.41,4091.79,3992.31,4498.46,4264.62,3944.62,4665.64,4613.85,4367.69,1684,1685,9.33,0,0,0,0,0
6,4267.69,4700.51,4335.9,4369.23,4232.31,4455.9,4085.64,3985.13,4491.28,4264.62,3944.62,4665.64,4615.9,4362.05,1685,1685,9.33,0,0,0,0,0
7,4267.69,4700.51,4335.9,4369.23,4232.31,4463.08,4103.08,4004.62,4494.87,4264.62,3944.62,4665.64,4613.85,4375.9,1685,1684,9.346,0,0,0,0,0
8,4267.69,4700.51,4335.9,4369.23,4232.31,4465.13,4112.82,4014.36,4496.92,4264.62,3944.62,4665.64,4610.77,4378.97,1685,1684,9.346,0,0,0,0,0
9,4267.69,4700.51,4335.9,4369.23,4232.31,4458.97,4102.05,4001.54,4494.36,4264.62,3944.62,4665.64,4609.23,4374.36,1685,1683,9.362,0,0,0,0,0
10,4267.69,4700.51,4335.9,4369.23,4232.31,4454.36,4092.82,3990.26,4493.85,4264.62,3944.62,4665.64,4609.74,4378.46,1685,1683,9.362,0,0,0,0,0
11,4267.69,4700.51,4335.9,4369.23,4232.31,4457.95,4095.38,3994.87,4494.36,4264.62,3944.62,4665.64,4611.79,4384.62,1685,1682,9.377,0,0,0,0,0
12,4267.69,4700.51,4335.9,4369.23,4232.31,4454.36,4096.41,3998.46,4493.85,4264.62,3944.62,4665.64,4610.26,4384.1,1685,1683,9.377,0,0,0,0,0
13,4267.69,4700.51,4335.9,4369.23,4232.31,4447.18,4090.77,3992.31,4494.36,4264.62,3944.62,4665.64,4604.1,4378.97,1684,1683,9.393,0,0,0,0,0
14,4267.69,4700.51,4335.9,4369.23,4232.31,4453.85,4088.21,3987.69,4493.85,4264.62,3944.62,4665.64,4600,4368.72,1685,1683,9.393,0,0,0,0,0
15,4267.69,4700.51,4335.9,4369.23,4232.31,4461.03,4091.28,3989.74,4493.85,4264.62,3944.62,4665.64,4603.59,4357.44,1685,1684,9.408,0,0,0,0,0
16,4267.69,4700.51,4335.9,4369.23,4232.31,4457.44,4094.36,3994.36,4494.36,4264.62,3944.62,4665.64,4602.56,4356.92,1686,1684,9.408,0,0,0,0,0
17,4267.69,4700.51,4335.9,4369.23,4232.31,4455.9,4096.41,3996.92,4493.85,4264.62,3944.62,4665.64,4600.51,4364.62,1685,1685,9.424,0,0,0,0,0
18,4267.69,4700.51,4335.9,4369.23,4232.31,4459.49,4098.97,4000,4493.85,4264.62,3944.62,4665.64,4609.23,4367.69,1686,1685,9.424,0,0,0,0,0
19,4267.69,4700.51,4335.9,4369.23,4232.31,4460,4101.54,4003.08,4494.36,4264.62,3944.62,4665.64,4613.33,4366.67,1685,1685,9.44,0,0,0,0,0
20,4267.69,4700.51,4335.9,4369.23,4232.31,4461.54,4106.67,4006.15,4494.36,4264.62,3944.62,4665.64,4605.13,4374.36,1686,1686,9.455,0,0,0,0,0
21,4267.69,4700.51,4335.9,4369.23,4232.31,4461.03,4104.1,4002.05,4494.36,4264.62,3944.62,4665.64,4598.97,4382.56,1686,1685,9.455,0,0,0,0,0
22,4267.69,4700.51,4335.9,4369.23,4232.31,4457.44,4092.82,3994.87,4493.85,4264.62,3944.62,4665.64,4603.08,4376.41,1685,1686,9.455,0,0,0,0,0
23,4267.69,4700.51,4335.9,4369.23,4232.31,4458.97,4092.82,3994.87,4493.85,4264.62,3944.62,4665.64,4611.28,4365.64,1686,1684,9.471,0,0,0,0,0
24,4267.69,4700.51,4335.9,4369.23,4232.31,4462.05,4100,4000.51,4494.36,4264.62,3944.62,4665.64,4612.82,4365.64,1684,1684,9.471,0,0,0,0,0
25,4267.69,4700.51,4335.9,4369.23,4232.31,4458.46,4094.36,3999.49,4494.36,4264.62,3944.62,4665.64,4605.13,4368.21,1685,1684,9.487,0,0,0,0,0
26,4267.69,4700.51,4335.9,4369.23,4232.31,4454.87,4089.74,3994.87,4494.36,4264.62,3944.62,4665.64,4597.95,4369.23,1685,1683,9.487,0,0,0,0,0
27,4267.69,4700.51,4335.9,4369.23,4231.79,4456.92,4097.95,3998.97,4493.85,4264.62,3944.62,4665.64,4604.62,4371.79,1685,1685,9.502,0,0,0,0,0
28,4267.69,4700.51,4335.9,4369.23,4232.31,4458.46,4100,4001.03,4493.85,4264.62,3944.62,4665.64,4616.92,4374.36,1685,1683,9.502,0,0,0,0,0
29,4267.69,4700.51,4335.9,4369.23,4232.31,4458.46,4091.28,3996.92,4494.36,4264.62,3944.62,4665.64,4615.38,4375.38,1685,1684,9.518,0,0,0,0,0
30,4267.69,4700.51,4335.9,4369.23,4231.79,4458.97,4090.26,3999.49,4494.36,4264.62,3944.62,4665.64,4604.1,4374.87,1685,1684,9.518,0,0,0,0,0
31,4267.69,4700.51,4335.9,4369.23,4232.82,4458.97,4097.95,4002.56,4493.85,4264.62,3944.62,4665.64,4601.03,4373.85,1685,1685,9.533,0,0,0,0,0
32,4267.69,4700.51,4335.9,4369.23,4233.85,4458.46,4098.97,3998.46,4493.85,4264.62,3944.62,4665.64,4606.15,4371.79,1685,1683,9.533,0,0,0,0,0
33,4267.69,4700.51,4336.41,4369.23,4233.85,4458.46,4094.87,3995.38,4493.33,4264.62,3944.62,4665.64,4605.13,4371.28,1684,1685,9.549,0,0,0,0,0
34,4267.69,4700.51,4335.9,4369.23,4233.33,4458.46,4094.36,3995.38,4494.87,4264.62,3944.62,4665.64,4603.08,4375.38,1686,1684,9.549,0,0,0,0,0
35,4267.69,4700.51,4333.85,4369.23,4233.33,4457.44,4096.41,3991.28,4493.33,4264.62,3944.62,4665.64,4603.59,4376.92,1685,1684,9.565,0,0,0,0,0
36,4267.69,4700.51,4333.33,4369.23,4233.33,4458.97,4095.9,3989.74,4493.85,4264.62,3944.62,4665.64,4603.59,4370.26,1686,1684,9.58,0,0,0,0,0
37,4267.69,4701.03,4334.36,4369.23,4233.33,4460.51,4097.44,3997.44,4500,4264.62,3944.62,4665.64,4604.62,4365.13,1685,1684,9.58,0,0,0,0,0
38,4267.69,4700.51,4333.33,4369.23,4233.33,4460.51,4102.56,4004.1,4505.64,4264.62,3944.62,4665.64,4605.13,4367.69,1685,1685,9.58,0,0,0,0,0
39,4267.69,4700.51,4332.31,4369.23,4233.33,4460,4106.67,4006.67,4505.13,4264.62,3944.62,4665.64,4603.59,4363.08,1686,1684,9.596,0,0,0,0,0
40,4267.69,4701.54,4332.82,4369.23,4233.33,4460,4105.64,4005.64,4496.41,4264.62,3944.62,4665.64,4605.64,4351.79,1685,1685,9.596,0,0,0,0,0
41,4267.69,4697.95,4332.82,4369.23,4233.33,4461.03,4105.64,4005.64,4492.82,4264.62,3944.62,4665.64,4611.79,4361.03,1685,1684,9.612,0,0,0,0,0
42,4267.69,4693.33,4332.82,4369.23,4232.82,4463.08,4109.23,4008.72,4500,4264.62,3944.62,4665.64,4610.77,4378.97,1685,1684,9.627,0,0,0,0,0
43,4267.69,4694.36,4332.82,4369.23,4232.31,4459.49,4101.03,4002.05,4500.51,4264.62,3944.62,4665.64,4604.62,4372.82,1685,1683,9.627,0,0,0,0,0
44,4267.69,4695.9,4332.82,4369.23,4232.31,4455.38,4090.77,3990.77,4497.44,4264.62,3944.62,4665.64,4602.05,4362.56,1684,1684,9.627,0,0,0,0,0
45,4267.69,4694.87,4332.82,4369.23,4232.31,4457.44,4100,3995.9,4503.08,4264.62,3944.62,4665.64,4604.62,4373.85,1686,1683,9.643,0,0,0,0,0
46,4267.69,4696.92,4332.82,4369.23,4232.31,4463.08,4110.77,4008.21,4503.08,4264.62,3944.62,4665.64,4604.62,4388.72,1684,1683,9.643,0,0,0,0,0
47,4267.69,4697.44,4332.82,4369.23,4232.31,4460.51,4103.08,4006.67,4493.33,4264.62,3944.62,4665.64,4603.08,4387.18,1685,1684,9.658,0,0,0,0,0
48,4267.69,4693.85,4332.82,4369.23,4232.31,4451.28,4089.74,3999.49,4493.33,4264.62,3944.62,4665.64,4607.18,4381.03,1685,1683,9.658,0,0,0,0,0
49,4267.69,4692.31,4332.82,4369.23,4232.31,4451.28,4093.33,4005.64,4497.95,4264.62,3944.62,4665.64,4614.87,4380.51,1686,1684,9.674,0,0,0,0,0
50,4267.69,4693.33,4332.82,4369.23,4232.31,4458.46,4104.62,4013.85,4493.85,4264.62,3944.62,4665.64,4616.41,4381.54,1685,1683,9.674,0,0,0,0,0
51,4267.69,4693.33,4332.82,4369.23,4232.82,4459.49,4103.08,4011.79,4493.85,4264.62,3944.62,4665.64,4615.38,4382.05,1684,1684,9.69,0,0,0,0,0
52,4267.69,4692.82,4332.82,4369.23,4233.33,4455.38,4090.77,4004.1,4495.38,4264.62,3944.62,4665.64,4613.33,4376.92,1686,1684,9.705,0,0,0,0,0
53,4267.69,4693.33,4332.82,4369.23,4232.31,4456.92,4090.26,4001.03,4495.9,4264.62,3944.62,4665.64,4606.67,4376.92,1685,1684,9.705,0,0,0,0,0
54,4267.69,4693.33,4332.82,4369.23,4231.79,4458.97,4102.05,4003.08,4495.38,4264.62,3944.62,4665.64,4600.51,4381.03,1685,1684,9.705,0,0,0,0,0
55,4267.69,4693.33,4332.82,4369.23,4231.79,4458.46,4108.72,4007.69,4492.82,4264.62,3944.62,4665.64,4603.08,4376.92,1685,1684,9.721,0,0,0,0,0
56,4267.69,4693.33,4332.82,4369.23,4231.79,4459.49,4109.23,4014.36,4498.97,4264.62,3944.62,4665.64,4604.62,4372.31,1687,1684,9.721,0,0,0,0,0
57,4267.69,4693.33,4332.82,4369.23,4231.79,4458.97,4105.64,4014.36,4505.64,4264.62,3944.62,4665.64,4604.62,4374.87,1684,1684,9.737,0,0,0,0,0
58,4267.69,4693.33,4332.82,4369.23,4231.79,4454.87,4100.51,4012.31,4499.49,4264.62,3944.62,4665.64,4603.59,4369.74,1686,1685,9.752,0,0,0,0,0
59,4267.69,4693.33,4332.82,4369.23,4231.79,4456.92,4099.49,4013.85,4492.31,4264.62,3944.62,4665.64,4603.08,4359.49,1686,1683,9.752,0,0,0,0,0
60,4267.69,4693.33,4332.82,4369.23,4231.79,4461.03,4101.54,4010.26,4494.87,4264.62,3944.62,4665.64,4607.69,4356.92,1685,1685,9.752,0,0,0,0,0
61,4267.69,4693.33,4332.82,4369.23,4231.79,4453.33,4097.44,4001.03,4495.9,4264.62,3944.62,4665.64,4610.26,4351.28,1685,1683,9.768,0,0,0,0,0
62,4267.69,4693.33,4332.82,4369.23,4231.79,4448.72,4091.79,3998.97,4493.33,4264.62,3944.62,4665.64,4605.64,4343.59,1685,1684,9.768,0,0,0,0,0
63,4267.69,4693.33,4332.82,4369.23,4231.79,4457.44,4093.33,4002.56,4494.36,4264.62,3944.62,4665.64,4601.54,4345.64,1686,1684,9.783,0,0,0,0,0
64,4267.69,4693.33,4332.82,4369.23,4231.79,4460,4095.9,4000,4495.9,4264.62,3944.62,4665.64,4605.13,4347.18,1684,1684,9.799,0,0,0,0,0
65,4267.69,4693.33,4332.82,4369.23,4231.79,4453.85,4095.38,3996.41,4495.38,4264.62,3944.62,4665.64,4611.79,4345.64,1685,1683,9.799,0,0,0,0,0
66,4267.69,4693.33,4332.82,4369.23,4231.79,4455.38,4097.95,3996.92,4494.87,4264.62,3944.62,4665.64,4611.28,4348.72,1685,1683,9.799,0,0,0,0,0
67,4267.69,4693.33,4332.82,4369.23,4231.79,4461.03,4099.49,3999.49,4494.87,4264.62,3944.62,4665.64,4610.26,4349.74,1685,1683,9.815,0,0,0,0,0
68,4267.69,4693.33,4332.82,4369.23,4231.79,4457.95,4094.87,4002.05,4494.87,4264.62,3944.62,4665.64,4610.26,4347.69,1685,1684,9.83,0,0,0,0,0
69,4267.69,4693.33,4332.82,4369.23,4231.79,4456.92,4092.82,4003.59,4494.87,4264.62,3944.62,4665.64,4606.15,4353.33,1685,1683,9.83,0,0,0,0,0
70,4267.69,4693.33,4332.82,4369.23,4231.79,4457.95,4095.9,4003.08,4494.87,4264.62,3944.62,4665.64,4600.51,4363.08,1685,1684,9.846,0,0,0,0,0
71,4267.69,4693.33,4332.82,4369.23,4231.79,4457.95,4095.9,4004.1,4494.87,4264.62,3944.62,4665.64,4602.05,4375.38,1686,1684,9.846,0,0,0,0,0
72,4267.69,4693.33,4332.82,4369.23,4231.79,4454.87,4094.87,4003.59,4494.87,4264.62,3944.62,4665.64,4604.1,4378.46,1685,1685,9.846,0,0,0,0,0
73,4267.69,4693.33,4332.82,4369.23,4231.79,4448.21,4091.28,3991.79,4494.87,4264.62,3944.62,4665.64,4601.54,4363.59,1685,1684,9.862,0,0,0,0,0
74,4267.69,4693.33,4332.82,4369.23,4231.79,4443.08,4088.21,3985.13,4494.87,4264.62,3944.62,4665.64,4601.03,4355.38,1685,1684,9.877,0,0,0,0,0
75,4267.69,4693.33,4332.82,4369.23,4231.79,4444.62,4091.28,3998.97,4494.87,4264.62,3944.62,4665.64,4603.08,4368.21,1686,1683,9.877,0,0,0,0,0
76,4267.69,4693.33,4332.82,4369.23,4231.79,4446.67,4093.85,4007.18,4494.87,4264.62,3944.62,4665.64,4601.03,4370.26,1684,1683,9.877,0,0,0,0,0
77,4267.69,4693.33,4332.82,4369.23,4231.79,4442.56,4090.26,3993.85,4494.87,4264.62,3944.62,4665.64,4602.56,4354.36,1686,1684,9.893,0,0,0,0,0
78,4267.69,4693.33,4332.82,4369.23,4231.79,4442.05,4089.23,3988.21,4494.87,4264.62,3944.62,4665.64,4611.28,4353.33,1685,1682,9.893,0,0,0,0,0
79,4267.69,4693.33,4332.82,4369.23,4231.79,4445.13,4090.26,3996.92,4494.87,4264.62,3944.62,4665.64,4616.41,4367.18,1684,1685,9.908,0,0,0,0,0
80,4267.69,4693.33,4332.82,4369.23,4231.79,4445.64,4090.77,3993.33,4494.87,4264.62,3944.62,4665.64,4613.85,4371.28,1686,1684,9.924,0,0,0,0,0
81,4267.69,4693.33,4332.82,4369.23,4231.79,4444.62,4090.26,3985.64,4494.87,4264.62,3944.62,4665.64,4614.87,4367.18,1685,1685,9.924,0,0,0,0,0
82,4267.69,4693.33,4332.82,4369.23,4231.79,4443.59,4087.18,3988.21,4494.87,4264.62,3944.62,4665.64,4613.85,4363.59,1686,1686,9.924,0,0,0,0,0
83,4267.69,4693.33,4332.82,4369.23,4231.79,4442.56,4081.54,3987.69,4494.87,4264.62,3944.62,4665.64,4603.59,4363.08,1686,1687,9.94,0,0,0,0,0
84,4267.69,4693.33,4332.82,4369.23,4231.79,4440,4078.97,3985.64,4494.87,4264.62,3944.62,4665.64,4597.95,4369.23,1687,1687,9.955,0,0,0,0,0
85,4267.69,4693.33,4332.82,4369.23,4231.79,4441.54,4085.64,3996.92,4494.87,4264.62,3944.62,4665.64,4606.15,4378.97,1686,1687,9.955,0,0,0,0,0
86,4267.69,4693.33,4332.82,4369.23,4231.79,4451.79,4097.44,4007.18,4494.87,4264.62,3944.62,4665.64,4614.87,4384.62,1688,1686,9.971,0,0,0,0,0
87,4267.69,4693.33,4332.82,4369.23,4232.31,4462.05,4101.03,4008.72,4494.36,4264.62,3944.62,4665.64,4615.38,4383.08,1686,1685,9.971,0,0,0,0,0
88,4267.69,4693.33,4332.82,4369.23,4231.79,4458.46,4094.36,4006.15,4494.36,4264.62,3944.62,4665.64,4612.82,4376.92,1686,1685,9.971,0,0,0,0,0
89,4267.69,4693.33,4332.82,4369.23,4231.28,4449.74,4089.74,3998.46,4495.9,4264.62,3944.62,4665.64,4613.33,4370.77,1685,1682,9.987,0,0,0,0,0
90,4267.69,4693.33,4332.82,4369.23,4231.28,4451.28,4091.79,3992.82,4493.33,4264.62,3944.62,4665.64,4614.87,4373.33,1685,1682,10.002,0,0,0,0,0
91,4267.69,4693.33,4332.82,4369.23,4231.28,4454.87,4092.31,3999.49,4495.38,4264.62,3944.62,4665.64,4614.36,4380,1685,1680,10.002,0,0,0,0,0
92,4267.69,4693.33,4332.82,4369.23,4231.28,4450.77,4090.77,4002.56,4502.05,4264.62,3944.62,4665.64,4614.87,4376.41,1684,1681,10.018,0,0,0,0,0
93,4267.69,4693.33,4332.82,4369.23,4231.28,4446.15,4088.21,3991.79,4498.97,4264.62,3944.62,4665.64,4614.87,4369.74,1685,1681,10.018,0,0,0,0,0
94,4267.69,4693.33,4332.82,4369.23,4231.28,4446.67,4085.64,3990.26,4497.44,4264.62,3944.62,4665.64,4614.87,4372.31,1685,1682,10.018,0,0,0,0,0
95,4267.69,4693.33,4332.82,4369.23,4231.28,4452.82,4087.18,4002.05,4503.08,4264.62,3944.62,4665.64,4615.38,4379.49,1685,1683,10.033,0,0,0,0,0
96,4267.69,4693.33,4332.82,4369.23,4231.28,4458.46,4093.33,4010.26,4499.49,4264.62,3944.62,4665.64,4614.36,4381.54,1685,1684,10.049,0,0,0,0,0
97,4267.69,4693.33,4332.82,4369.23,4230.77,4458.97,4095.9,4006.67,4491.28,4264.62,3944.62,4665.64,4615.38,4383.08,1686,1685,10.049,0,0,0,0,0
98,4267.69,4693.33,4332.82,4369.23,4231.79,4459.49,4093.85,4000.51,4494.36,4264.62,3944.62,4665.64,4615.9,4381.03,1685,1685,10.049,0,0,0,0,0
99,4267.69,4692.82,4332.82,4369.23,4233.33,4458.97,4092.31,4001.54,4495.9,4264.62,3944.62,4665.64,4608.72,4374.36,1685,1686,10.065,0,0,0,0,0
100,4267.69,4692.82,4332.82,4369.23,4233.85,4448.21,4086.67,4000.51,4491.28,4264.62,3944.62,4665.64,4600.51,4373.33,1686,1685,10.08,0,0,0,0,0
101,4267.69,4693.33,4332.82,4369.23,4232.31,4442.05,4081.03,3988.72,4492.82,4264.62,3944.62,4665.64,4601.03,4372.82,1684,1687,10.08,0,0,0,0,0
102,4267.69,4692.82,4332.82,4369.23,4232.31,4448.21,4082.56,3985.13,4493.85,4264.62,3944.62,4665.64,4603.59,4368.72,1687,1685,10.096,0,0,0,0,0
103,4267.69,4692.31,4332.82,4369.23,4232.82,4448.72,4084.1,3993.33,4493.33,4264.62,3944.62,4665.64,4602.05,4373.85,1685,1685,10.096,0,0,0,0,0
104,4267.69,4695.38,4332.82,4369.23,4232.31,4442.56,4083.59,3998.97,4493.33,4264.62,3944.62,4665.64,4601.54,4380,1686,1685,10.096,0,0,0,0,0
105,4267.69,4697.95,4332.82,4369.23,4232.31,4448.21,4086.67,3996.41,4494.87,4264.62,3944.62,4665.64,4601.54,4378.46,1685,1683,10.112,0,0,0,0,0
106,4267.69,4696.41,4332.82,4369.23,4232.31,4462.56,4093.85,4000.51,4493.33,4264.62,3944.62,4665.64,4602.05,4382.05,1685,1684,10.127,0,0,0,0,0
107,4267.69,4694.87,4332.82,4369.23,4232.31,4460,4094.87,4005.64,4492.82,4264.62,3944.62,4665.64,4603.08,4387.18,1685,1682,10.127,0,0,0,0,0
108,4267.69,4695.38,4332.82,4369.23,4232.31,4444.1,4086.15,3996.41,4501.03,4264.62,3944.62,4665.64,4601.54,4379.49,1685,1683,10.143,0,0,0,0,0
109,4267.69,4695.9,4332.82,4369.23,4232.31,4446.15,4084.1,3994.87,4507.69,4264.62,3944.62,4665.64,4603.08,4381.03,1685,1681,10.143,0,0,0,0,0
110,4267.69,4695.9,4332.82,4369.23,4232.31,4457.44,4092.31,4008.21,4505.64,4264.62,3944.62,4665.64,4609.23,4393.85,1685,1682,10.143,0,0,0,0,0
111,4267.69,4696.41,4332.31,4369.23,4232.31,4448.72,4087.69,4002.56,4503.08,4264.62,3944.62,4665.64,4612.31,4389.23,1685,1681,10.158,0,0,0,0,0
112,4267.69,4695.9,4333.85,4369.23,4232.31,4437.44,4075.38,3984.62,4504.1,4264.62,3944.62,4665.64,4610.26,4376.92,1685,1683,10.174,0,0,0,0,0
113,4267.69,4696.41,4335.9,4369.23,4232.31,4445.13,4080,3984.62,4504.62,4264.62,3944.62,4665.64,4609.74,4379.49,1687,1682,10.174,0,0,0,0,0
114,4267.69,4696.41,4334.87,4369.23,4232.31,4452.31,4089.74,3992.31,4501.54,4264.62,3944.62,4665.64,4611.28,4390.77,1684,1683,10.19,0,0,0,0,0
115,4267.69,4696.41,4333.33,4369.23,4232.31,4445.64,4082.56,3989.74,4496.41,4264.62,3944.62,4665.64,4611.79,4386.67,1687,1685,10.19,0,0,0,0,0
116,4267.69,4696.41,4333.85,4369.23,4232.31,4438.97,4072.82,3987.18,4493.85,4264.62,3944.62,4665.64,4610.26,4376.41,1686,1685,10.205,0,0,0,0,0
117,4267.69,4696.41,4333.85,4369.23,4232.31,4442.56,4076.92,3990.26,4493.33,4264.62,3944.62,4665.64,4610.26,4387.69,1686,1686,10.205,0,0,0,0,0
118,4267.69,4696.41,4332.31,4369.23,4232.31,4447.18,4082.05,3991.79,4494.87,4264.62,3944.62,4665.64,4611.28,4396.41,1686,1685,10.221,0,0,0,0,0
119,4267.69,4696.41,4331.79,4369.23,4232.31,4445.13,4080.51,3991.79,4502.56,4264.62,3944.62,4665.64,4607.18,4385.13,1686,1685,10.221,0,0,0,0,0
120,4267.69,4696.41,4333.33,4369.23,4232.31,4443.08,4081.03,3992.31,4503.59,4264.62,3944.62,4665.64,4602.05,4383.08,1685,1684,10.237,0,0,0,0,0
121,4267.69,4696.41,4334.87,4369.23,4232.31,4444.1,4078.46,3991.79,4494.87,4264.62,3944.62,4665.64,4600.51,4388.72,1685,1684,10.237,0,0,0,0,0
122,4267.69,4696.41,4334.87,4369.23,4232.31,4444.1,4075.9,3989.23,4492.31,4264.62,3944.62,4665.64,4602.56,4383.59,1685,1684,10.252,0,0,0,0,0
123,4267.69,4696.41,4334.36,4369.23,4232.31,4446.67,4083.59,3988.72,4496.41,4264.62,3944.62,4665.64,4604.1,4388.72,1685,1684,10.252,0,0,0,0,0
124,4267.69,4696.41,4334.87,4369.23,4232.31,4449.74,4090.26,3989.74,4495.38,4264.62,3944.62,4665.64,4601.54,4401.54,1685,1683,10.268,0,0,0,0,0
125,4267.69,4696.41,4334.87,4369.23,4232.31,4457.44,4088.21,3990.26,4494.36,4264.62,3944.62,4665.64,4602.56,4399.49,1685,1684,10.268,0,0,0,0,0
126,4267.69,4696.41,4334.87,4369.23,4232.31,4458.46,4091.28,3991.28,4494.36,4264.62,3944.62,4665.64,4612.82,4394.36,1685,1684,10.268,0,0,0,0,0
127,4267.69,4696.41,4334.36,4369.23,4232.31,4447.18,4091.28,3988.72,4493.85,4264.62,3944.62,4665.64,4613.85,4390.26,1685,1685,10.283,0,0,0,0,0
128,4267.69,4696.41,4333.33,4369.23,4232.31,4445.64,4088.21,3990.77,4494.36,4264.62,3944.62,4665.64,4604.1,4386.67,1685,1684,10.299,0,0,0,0,0
0,4267.69,4696.41,4333.33,4369.23,4232.31,4460,4093.85,4007.18,4493.85,4264.62,3944.62,4665.64,4599.49,4394.87,1685,1685,10.299,0,0,0,0,0
1,4267.69,4696.41,4333.33,4369.23,4232.31,4463.59,4096.92,4016.41,4493.33,4264.62,3944.62,4665.64,4604.1,4398.46,1686,1683,10.315,0,0,0,0,0
2,4267.69,4696.41,4333.33,4369.23,4232.82,4456.41,4091.28,4007.69,4493.85,4264.62,3944.62,4665.64,4610.26,4390.77,1684,1685,10.315,0,0,0,0,0
3,4267.69,4696.41,4333.33,4369.23,4232.31,4457.95,4091.28,4002.05,4494.36,4264.62,3944.62,4665.64,4612.82,4388.21,1686,1683,10.33,0,0,0,0,0
4,4267.69,4695.9,4333.33,4369.23,4231.28,4461.54,4096.92,4009.23,4492.82,4264.62,3944.62,4665.64,4610.26,4395.9,1684,1684,10.33,0,0,0,0,0
5,4267.69,4694.87,4333.33,4369.23,4231.28,4457.95,4095.38,4007.69,4496.41,4264.62,3944.62,4665.64,4608.72,4397.95,1686,1685,10.346,0,0,0,0,0
6,4267.69,4694.87,4333.85,4369.23,4232.31,4454.87,4090.77,3995.38,4503.59,4264.62,3944.62,4665.64,4611.28,4387.18,1685,1683,10.346,0,0,0,0,0
7,4267.69,4695.38,4333.33,4369.23,4232.82,4457.44,4090.26,3992.31,4506.67,4264.62,3944.62,4665.64,4610.26,4378.46,1685,1684,10.362,0,0,0,0,0
8,4267.69,4695.38,4333.33,4369.23,4232.31,4460,4090.77,3995.38,4503.59,4264.62,3944.62,4665.64,4609.74,4382.56,1686,1684,10.362,0,0,0,0,0
9,4267.69,4695.38,4333.85,4369.23,4232.31,4458.97,4092.31,3998.46,4497.95,4264.62,3944.62,4665.64,4611.28,4385.13,1686,1685,10.377,0,0,0,0,0
10,4267.69,4695.38,4333.33,4369.23,4232.31,4460,4092.31,4003.59,4491.79,4264.62,3944.62,4665.64,4610.77,4381.54,1687,1685,10.377,0,0,0,0,0
11,4267.69,4695.38,4331.79,4369.23,4232.31,4458.46,4089.23,4004.1,4494.36,4264.62,3944.62,4665.64,4610.77,4378.97,1687,1686,10.393,0,0,0,0,0
12,4267.69,4695.38,4332.82,4369.23,4232.31,4457.95,4094.87,4002.56,4503.08,4264.1,3944.62,4665.64,4610.26,4381.54,1688,1686,10.393,0,0,0,0,0
13,4267.69,4695.38,4334.36,4369.23,4232.31,4461.03,4102.05,4004.62,4498.97,4264.1,3944.62,4665.64,4605.64,4382.05,1687,1687,10.408,0,0,0,0,0
14,4267.69,4695.38,4333.33,4369.23,4232.31,4461.54,4097.95,4005.64,4490.77,4265.13,3944.62,4665.64,4603.08,4378.97,1688,1687,10.408,0,0,0,0,0
15,4267.69,4695.38,4333.33,4369.23,4232.31,4459.49,4095.9,4004.1,4497.44,4265.13,3944.62,4665.64,4604.62,4385.64,1686,1687,10.424,0,0,0,0,0
16,4267.69,4695.38,4335.38,4369.23,4232.31,4460.51,4097.95,4006.15,4506.67,4264.62,3944.62,4665.64,4604.1,4394.87,1687,1687,10.424,0,0,0,0,0
17,4267.69,4695.38,4335.9,4369.23,4232.31,4463.08,4095.38,4006.15,4505.13,4265.13,3944.62,4665.64,4606.15,4386.67,1686,1686,10.44,0,0,0,0,0
18,4267.69,4695.38,4334.36,4369.23,4232.31,4461.03,4097.95,4002.56,4503.08,4265.13,3944.62,4665.64,4612.82,4379.49,1686,1687,10.44,0,0,0,0,0
19,4267.69,4695.38,4334.36,4369.23,4232.82,4459.49,4104.1,4006.15,4506.67,4265.13,3944.62,4665.64,4614.87,4390.77,1688,1684,10.455,0,0,0,0,0
20,4267.69,4695.9,4333.85,4369.23,4232.31,4461.03,4100.51,4012.31,4502.05,4265.13,3944.62,4665.64,4608.72,4400,1686,1686,10.455,0,0,0,0,0
21,4267.69,4695.38,4333.85,4369.23,4231.79,4460.51,4094.36,4010.26,4494.87,4265.13,3944.62,4665.64,4602.56,4390.77,1687,1684,10.471,0,0,0,0,0
22,4267.69,4695.38,4335.38,4369.23,4233.33,4457.44,4091.28,4004.1,4491.79,4265.13,3944.62,4665.64,4603.08,4381.03,1687,1685,10.471,0,0,0,0,0
23,4267.69,4697.95,4335.38,4369.23,4232.82,4457.44,4091.79,4003.08,4494.36,4265.13,3944.62,4665.64,4603.59,4383.59,1686,1685,10.486,0,0,0,0,0
24,4267.69,4700,4333.85,4369.23,4231.28,4461.03,4100,4007.69,4500.51,4265.13,3944.62,4665.64,4600.51,4393.85,1686,1685,10.486,0,0,0,0,0
25,4267.69,4698.46,4333.85,4369.23,4232.31,4461.54,4107.69,4010.26,4505.13,4265.13,3944.62,4665.64,4605.64,4400,1687,1684,10.502,0,0,0,0,0
26,4267.69,4695.9,4333.33,4369.23,4232.31,4460,4101.03,4007.18,4504.1,4265.13,3944.62,4665.64,4616.41,4397.44,1686,1685,10.502,0,0,0,0,0
27,4267.69,4694.87,4333.85,4369.23,4231.28,4460,4093.85,4004.62,4504.1,4265.13,3944.62,4665.64,4616.41,4395.9,1687,1686,10.518,0,0,0,0,0
28,4267.69,4695.9,4335.38,4369.23,4232.31,4458.46,4096.92,4004.62,4503.59,4265.13,3944.62,4665.64,4611.28,4395.38,1687,1684,10.518,0,0,0,0,0
29,4267.69,4696.41,4334.87,4369.23,4233.85,4458.46,4098.46,4005.64,4497.95,4265.13,3944.62,4665.64,4613.85,4395.9,1686,1686,10.533,0,0,0,0,0
30,4267.69,4695.9,4333.33,4369.23,4232.82,4458.97,4092.31,4004.62,4493.85,4265.13,3944.62,4665.64,4616.92,4398.97,1688,1685,10.533,0,0,0,0,0
31,4267.69,4695.9,4333.85,4369.23,4231.28,4451.79,4089.74,3998.46,4493.33,4265.13,3944.62,4665.64,4610.26,4391.28,1687,1685,10.549,0,0,0,0,0
32,4267.69,4696.41,4333.85,4369.23,4230.77,4449.23,4091.79,3991.79,4497.95,4265.13,3944.62,4665.64,4603.59,4385.13,1689,1685,10.549,0,0,0,0,0
33,4267.69,4696.41,4333.33,4369.23,4231.28,4457.95,4093.33,3995.38,4502.56,4265.13,3944.62,4665.64,4610.26,4389.23,1687,1685,10.565,0,0,0,0,0
34,4267.69,4696.41,4334.87,4369.23,4232.31,4462.05,4096.41,4001.03,4497.44,4265.13,3944.62,4665.64,4619.49,4389.74,1688,1685,10.565,0,0,0,0,0
35,4267.69,4696.41,4336.41,4369.23,4232.82,4458.46,4097.95,4002.05,4489.74,4265.13,3944.62,4665.64,4611.79,4388.72,1687,1684,10.58,0,0,0,0,0
36,4267.69,4696.41,4335.9,4369.23,4231.79,4452.82,4093.33,4002.05,4497.44,4265.13,3944.62,4665.64,4602.05,4392.31,1688,1684,10.58,0,0,0,0,0
37,4267.69,4696.41,4334.36,4369.23,4231.28,4445.64,4089.23,3998.46,4507.69,4264.62,3944.62,4665.64,4604.1,4389.23,1686,1683,10.596,0,0,0,0,0
38,4267.69,4696.41,4334.36,4369.23,4231.79,4447.18,4091.28,3997.95,4501.03,4265.13,3944.62,4665.64,4606.15,4383.08,1687,1683,10.596,0,0,0,0,0
39,4267.69,4696.41,4334.87,4369.23,4231.28,4457.95,4093.85,4003.59,4492.82,4265.64,3944.62,4665.64,4603.59,4384.1,1687,1682,10.611,0,0,0,0,0
40,4267.69,4696.41,4333.85,4369.23,4231.28,4458.97,4092.31,4001.03,4493.85,4263.59,3944.62,4665.64,4602.56,4382.56,1686,1683,10.611,0,0,0,0,0
41,4267.69,4696.41,4333.33,4369.23,4231.79,4454.36,4088.72,3990.77,4495.9,4262.05,3944.62,4665.64,4604.62,4379.49,1688,1683,10.627,0,0,0,0,0
42,4267.69,4696.41,4333.33,4369.23,4231.79,4456.41,4089.74,3989.74,4493.33,4264.1,3944.62,4665.64,4605.13,4380.51,1687,1684,10.627,0,0,0,0,0
43,4267.69,4696.41,4333.85,4369.23,4231.28,4459.49,4094.36,3993.33,4493.33,4265.64,3944.62,4665.64,4603.08,4380,1688,1685,10.643,0,0,0,0,0
44,4267.69,4696.41,4333.85,4369.23,4231.79,4460,4095.38,3995.38,4494.36,4264.62,3944.62,4665.64,4603.59,4381.03,1687,1685,10.643,0,0,0,0,0
45,4267.69,4696.41,4333.85,4369.23,4231.79,4456.41,4094.87,3997.44,4490.26,4264.1,3944.62,4665.64,4603.59,4382.56,1688,1686,10.658,0,0,0,0,0
46,4267.69,4696.41,4333.85,4369.23,4231.79,4454.87,4098.46,3995.9,4494.36,4266.15,3944.62,4665.64,4602.05,4382.05,1688,1685,10.658,0,0,0,0,0
47,4267.69,4696.41,4333.85,4369.23,4231.79,4458.46,4100.51,3997.95,4503.59,4266.15,3944.62,4665.64,4606.15,4386.15,1687,1686,10.674,0,0,0,0,0
48,4267.69,4696.41,4334.36,4369.23,4231.79,4456.41,4095.9,4004.1,4501.54,4261.54,3944.62,4665.64,4615.38,4388.21,1687,1684,10.674,0,0,0,0,0
49,4267.69,4696.41,4334.36,4369.23,4231.79,4445.64,4090.77,4004.1,4492.82,4260,3944.62,4665.64,4615.9,4383.08,1688,1685,10.69,0,0,0,0,0
50,4267.69,4696.41,4334.87,4369.23,4231.79,4438.97,4090.26,4000.51,4492.82,4265.64,3944.62,4665.64,4613.33,4381.54,1687,1685,10.69,0,0,0,0,0
51,4267.69,4696.41,4334.36,4369.23,4231.79,4443.08,4092.31,4007.18,4495.38,4268.21,3944.62,4665.64,4615.38,4385.13,1689,1685,10.705,0,0,0,0,0
52,4267.69,4696.41,4333.33,4369.23,4231.79,4446.15,4092.31,4006.15,4493.33,4262.56,3944.62,4665.64,4615.38,4378.46,1687,1685,10.705,0,0,0,0,0
53,4267.69,4696.41,4332.82,4369.23,4231.79,4443.08,4089.74,3993.33,4492.82,4262.56,3944.62,4665.64,4612.82,4369.23,1688,1686,10.721,0,0,0,0,0
54,4267.69,4696.41,4333.33,4369.23,4231.79,4446.15,4093.33,3996.41,4494.87,4266.15,3944.62,4665.64,4614.36,4373.33,1688,1685,10.721,0,0,0,0,0
55,4267.69,4696.41,4332.82,4369.23,4231.79,4455.9,4104.1,4006.67,4495.38,4265.64,3944.62,4665.64,4616.41,4389.23,1688,1685,10.736,0,0,0,0,0
56,4267.69,4696.41,4332.31,4369.23,4231.79,4460,4107.18,4003.59,4494.87,4264.62,3944.62,4665.64,4613.33,4394.87,1686,1683,10.736,0,0,0,0,0
57,4267.69,4696.41,4335.38,4369.23,4231.28,4457.95,4101.03,4000.51,4493.85,4265.13,3944.62,4665.64,4614.36,4387.69,1686,1683,10.752,0,0,0,0,0
58,4267.69,4696.41,4336.92,4369.23,4231.28,4456.92,4097.44,4003.08,4494.36,4264.1,3944.62,4665.64,4618.46,4384.1,1685,1681,10.752,0,0,0,0,0
59,4267.69,4696.41,4330.26,4369.23,4231.79,4455.9,4097.95,4004.1,4494.36,4264.1,3944.62,4665.64,4608.72,4384.62,1684,1681,10.768,0,0,0,0,0
60,4267.69,4696.41,4327.18,4369.23,4231.28,4459.49,4098.97,4006.15,4493.85,4265.64,3944.62,4665.64,4600,4385.64,1685,1679,10.768,0,0,0,0,0
61,4267.69,4696.41,4333.33,4369.23,4231.28,4456.92,4097.44,4005.64,4493.85,4265.64,3944.62,4665.64,4611.79,4383.59,1683,1680,10.783,0,0,0,0,0
62,4267.69,4696.41,4336.41,4369.23,4231.79,4443.59,4090.26,3997.44,4493.85,4265.13,3944.62,4665.64,4615.9,4381.54,1685,1681,10.783,0,0,0,0,0
63,4267.69,4696.41,4334.36,4369.23,4232.31,4445.13,4086.67,3998.46,4493.33,4265.64,3944.62,4665.64,4601.54,4384.1,1684,1681,10.799,0,0,0,0,0
64,4267.69,4696.41,4334.36,4369.23,4232.31,4461.03,4095.9,4006.67,4493.85,4265.64,3944.62,4665.64,4598.97,4390.26,1684,1683,10.799,0,0,0,0,0
65,4267.69,4696.41,4334.36,4369.23,4232.31,4464.1,4106.15,4008.21,4495.38,4265.13,3944.62,4665.64,4606.15,4395.38,1684,1683,10.815,0,0,0,0,0
66,4267.69,4696.41,4333.33,4369.23,4232.31,4461.03,4106.15,4010.77,4492.82,4266.15,3944.62,4665.64,4604.62,4394.87,1685,1684,10.815,0,0,0,0,0
67,4267.69,4696.41,4334.36,4369.23,4232.31,4463.59,4103.59,4014.36,4493.85,4265.64,3944.62,4665.64,4602.56,4390.77,1684,1684,10.83,0,0,0,0,0
68,4267.69,4696.41,4334.87,4369.23,4232.31,4462.56,4106.15,4007.18,4503.08,4262.56,3944.62,4665.64,4605.13,4384.1,1684,1686,10.83,0,0,0,0,0
69,4267.69,4696.41,4334.36,4369.23,4232.31,4461.03,4104.62,3999.49,4503.59,4262.56,3944.62,4665.64,4605.13,4381.54,1685,1685,10.846,0,0,0,0,0
70,4267.69,4696.41,4334.36,4369.23,4232.31,4462.56,4096.92,4002.05,4494.36,4266.15,3944.62,4665.64,4604.62,4382.05,1684,1686,10.846,0,0,0,0,0
71,4267.69,4696.41,4334.36,4369.23,4232.31,4461.03,4098.97,4006.15,4491.79,4266.15,3944.62,4665.64,4604.1,4385.64,1685,1685,10.861,0,0,0,0,0
72,4267.69,4696.41,4334.36,4369.23,4232.31,4461.03,4105.13,4006.67,4495.38,4263.59,3944.62,4665.64,4603.08,4394.87,1683,1686,10.861,0,0,0,0,0
73,4267.69,4696.41,4334.36,4369.23,4232.31,4463.08,4096.92,4001.03,4493.85,4265.13,3944.62,4665.64,4604.62,4394.87,1684,1685,10.877,0,0,0,0,0
74,4267.69,4696.41,4334.36,4369.23,4232.31,4461.03,4086.67,3993.33,4491.79,4266.15,3944.62,4665.64,4607.18,4385.64,1683,1684,10.877,0,0,0,0,0
75,4267.69,4696.41,4334.36,4369.23,4232.31,4457.44,4088.72,3988.72,4494.36,4265.64,3944.62,4665.64,4606.67,4378.97,1684,1684,10.893,0,0,0,0,0
76,4267.69,4696.41,4334.36,4369.23,4232.31,4457.44,4087.69,3988.21,4494.87,4265.64,3944.62,4665.64,4611.28,4377.44,1684,1683,10.893,0,0,0,0,0
77,4267.69,4696.41,4334.36,4369.23,4232.31,4460,4090.77,3996.92,4493.33,4265.64,3944.62,4665.64,4616.92,4383.59,1684,1683,10.908,0,0,0,0,0
78,4267.69,4696.41,4334.36,4368.72,4232.31,4461.03,4103.08,4007.69,4497.44,4265.64,3944.62,4665.64,4613.33,4388.21,1683,1683,10.908,0,0,0,0,0
79,4267.69,4696.41,4334.36,4369.23,4232.31,4460,4101.03,4006.67,4505.13,4265.64,3944.62,4665.64,4609.23,4389.23,1684,1683,10.924,0,0,0,0,0
80,4267.69,4696.41,4334.36,4368.72,4232.31,4460,4090.77,4000,4504.62,4265.64,3944.62,4665.64,4611.28,4393.33,1684,1682,10.924,0,0,0,0,0
81,4267.69,4696.41,4334.36,4367.18,4232.31,4459.49,4095.9,4002.56,4504.62,4265.64,3944.62,4665.64,4611.28,4391.28,1683,1684,10.94,0,0,0,0,0
82,4267.69,4696.41,4334.87,4366.67,4232.31,4461.03,4105.13,4007.18,4504.62,4265.64,3944.62,4665.64,4610.26,4383.08,1684,1683,10.94,0,0,0,0,0
83,4267.69,4696.41,4334.36,4367.69,4232.31,4461.54,4100,4005.13,4496.41,4265.64,3944.62,4665.64,4608.72,4385.64,1683,1683,10.955,0,0,0,0,0
84,4267.69,4696.41,4334.36,4368.21,4232.31,4461.03,4093.85,4004.62,4491.28,4265.64,3944.62,4665.64,4602.56,4395.38,1684,1684,10.955,0,0,0,0,0
85,4267.69,4696.41,4334.87,4367.69,4232.31,4458.97,4092.82,4003.08,4494.87,4265.64,3944.62,4665.64,4601.54,4395.9,1684,1684,10.971,0,0,0,0,0
86,4267.69,4696.41,4334.36,4367.69,4232.31,4458.46,4092.31,3998.46,4494.36,4265.64,3944.62,4665.64,4611.28,4386.67,1685,1686,10.971,0,0,0,0,0
87,4267.69,4696.41,4332.82,4368.21,4232.31,4458.46,4092.31,3997.44,4492.31,4265.64,3944.62,4665.64,4617.95,4379.49,1686,1685,10.986,0,0,0,0,0
88,4267.69,4696.41,4332.82,4367.69,4232.31,4460,4094.36,4002.56,4495.9,4265.64,3944.62,4665.64,4611.28,4383.08,1685,1686,10.986,0,0,0,0,0
89,4267.69,4696.41,4333.85,4367.69,4232.31,4460,4099.49,4006.67,4495.9,4265.13,3944.62,4665.64,4601.54,4393.85,1686,1686,11.002,0,0,0,0,0
90,4267.69,4696.41,4333.85,4367.69,4232.31,4461.03,4104.62,4006.67,4491.28,4266.15,3944.62,4665.64,4602.56,4397.44,1685,1686,11.002,0,0,0,0,0
91,4267.69,4696.41,4333.33,4367.69,4232.31,4460.51,4105.13,4005.64,4496.41,4265.64,3944.62,4665.64,4607.18,4396.41,1685,1685,11.018,0,0,0,0,0
92,4267.69,4696.41,4333.85,4367.69,4232.31,4458.46,4101.54,4005.64,4503.59,4262.05,3944.62,4665.64,4606.67,4397.44,1684,1685,11.018,0,0,0,0,0
93,4267.69,4696.41,4333.85,4367.69,4232.31,4468.72,4104.1,4012.31,4499.49,4262.56,3944.62,4665.64,4605.64,4398.97,1685,1684,11.033,0,0,0,0,0
94,4267.69,4696.41,4333.85,4367.69,4232.31,4476.92,4110.77,4021.54,4492.82,4265.64,3944.62,4665.64,4606.67,4400.51,1683,1683,11.033,0,0,0,0,0
95,4267.69,4696.41,4333.85,4367.69,4232.31,4464.1,4103.59,4009.74,4492.82,4266.15,3944.62,4665.64,4606.67,4395.38,1684,1681,11.049,0,0,0,0,0
96,4267.69,4696.41,4333.85,4367.69,4232.31,4453.33,4090.77,3991.79,4498.46,4263.59,3944.62,4665.64,4606.67,4388.21,1683,1679,11.049,0,0,0,0,0
97,4267.69,4696.41,4333.85,4367.69,4232.31,4458.97,4091.79,3995.9,4504.62,4264.62,3944.62,4665.64,4606.67,4388.72,1682,1680,11.065,0,0,0,0,0
98,4267.69,4696.41,4334.36,4367.69,4232.31,4460,4095.9,4004.62,4502.05,4266.15,3944.62,4665.64,4605.64,4383.08,1683,1678,11.065,0,0,0,0,0
99,4267.69,4696.41,4334.87,4367.69,4232.31,4455.9,4092.31,4000.51,4494.87,4262.56,3944.62,4665.64,4607.18,4378.97,1681,1678,11.08,0,0,0,0,0
100,4267.69,4696.41,4334.87,4367.69,4232.31,4458.97,4091.79,3998.46,4494.87,4260,3944.62,4665.64,4609.23,4389.23,1681,1678,11.08,0,0,0,0,0
101,4267.69,4696.41,4334.36,4367.69,4232.31,4458.46,4091.28,3996.92,4494.87,4262.05,3944.62,4665.64,4609.74,4388.21,1681,1679,11.096,0,0,0,0,0
102,4267.69,4696.41,4334.87,4367.69,4232.82,4456.41,4089.74,3993.85,4495.9,4264.1,3944.62,4665.64,4613.85,4381.03,1681,1679,11.096,0,0,0,0,0
103,4267.69,4696.41,4334.87,4367.69,4232.31,4459.49,4093.85,4004.62,4504.1,4263.08,3944.62,4665.64,4614.87,4391.79,1680,1680,11.111,0,0,0,0,0
104,4267.69,4696.41,4334.36,4367.69,4231.28,4460,4095.38,4007.69,4503.59,4263.59,3944.62,4665.64,4605.13,4390.77,1681,1681,11.111,0,0,0,0,0
105,4267.69,4696.41,4333.33,4367.69,4231.28,4457.44,4090.77,3992.82,4493.33,4264.62,3944.62,4665.64,4600,4370.26,1682,1683,11.127,0,0,0,0,0
106,4267.69,4696.41,4333.33,4367.69,4232.31,4457.95,4089.23,3990.26,4492.31,4264.1,3944.62,4665.64,4604.1,4374.36,1682,1683,11.127,0,0,0,0,0
107,4267.69,4696.41,4333.85,4367.69,4232.31,4459.49,4093.85,4000.51,4495.9,4264.1,3944.62,4665.64,4603.08,4387.18,1682,1685,11.143,0,0,0,0,0
108,4267.69,4696.41,4334.87,4367.69,4232.31,4461.03,4104.1,4008.21,4495.38,4264.1,3944.62,4665.64,4598.97,4382.56,1683,1685,11.143,0,0,0,0,0
109,4267.69,4696.41,4334.87,4367.69,4232.31,4462.05,4109.23,4011.28,4493.33,4264.1,3944.62,4665.64,4597.95,4383.08,1682,1686,11.158,0,0,0,0,0
110,4267.69,4696.41,4333.85,4367.69,4232.31,4460,4104.62,4008.72,4493.85,4264.1,3944.62,4665.64,4603.59,4390.26,1683,1686,11.158,0,0,0,0,0
111,4267.69,4696.41,4334.36,4367.69,4232.31,4467.18,4104.62,4011.79,4494.36,4264.1,3944.62,4665.64,4613.33,4396.41,1683,1688,11.174,0,0,0,0,0
112,4267.69,4696.41,4336.41,4367.69,4232.31,4475.38,4110.26,4023.08,4493.33,4264.1,3944.62,4665.64,4612.31,4401.03,1686,1687,11.174,0,0,0,0,0
113,4267.69,4696.41,4333.85,4367.69,4232.31,4465.13,4106.67,4015.9,4493.85,4264.1,3944.62,4665.64,4608.72,4395.38,1685,1688,11.19,0,0,0,0,0
114,4267.69,4696.41,4330.77,4367.69,4232.31,4456.92,4104.62,4005.64,4494.87,4264.1,3944.62,4665.64,4611.79,4388.21,1686,1688,11.19,0,0,0,0,0
115,4267.69,4696.41,4332.82,4367.69,4232.31,4463.59,4107.18,4011.28,4492.31,4264.1,3944.62,4665.64,4607.69,4388.21,1686,1686,11.205,0,0,0,0,0
116,4267.69,4696.41,4334.87,4367.69,4232.31,4462.56,4101.54,4011.28,4494.87,4264.1,3944.62,4665.64,4598.97,4385.13,1685,1687,11.205,0,0,0,0,0
117,4267.69,4696.41,4333.33,4367.69,4232.31,4455.38,4097.44,4004.62,4503.08,4264.1,3944.62,4665.64,4605.64,4388.21,1686,1684,11.221,0,0,0,0,0
118,4267.69,4696.41,4332.31,4367.69,4232.31,4460.51,4104.62,4010.26,4505.13,4264.1,3944.62,4665.64,4614.87,4396.92,1684,1684,11.221,0,0,0,0,0
119,4267.69,4696.41,4332.82,4367.69,4232.31,4466.15,4109.23,4016.41,4502.56,4264.1,3944.62,4665.64,4612.31,4388.72,1686,1683,11.236,0,0,0,0,0
120,4267.69,4696.41,4333.33,4367.69,4232.31,4462.56,4105.64,4011.79,4502.56,4264.1,3944.62,4665.64,4608.72,4380.51,1685,1683,11.236,0,0,0,0,0
121,4267.69,4696.41,4332.82,4367.69,4232.31,4457.95,4102.56,4009.74,4504.62,4264.1,3944.62,4665.64,4610.77,4392.31,1685,1681,11.252,0,0,0,0,0
122,4267.69,4696.41,4332.82,4367.69,4232.31,4457.95,4105.13,4015.38,4503.08,4264.1,3944.62,4665.64,4611.79,4400.51,1684,1681,11.252,0,0,0,0,0
123,4267.69,4696.41,4332.82,4367.69,4232.31,4458.97,4107.69,4022.05,4502.56,4264.1,3944.62,4665.64,4609.74,4394.36,1685,1680,11.268,0,0,0,0,0
124,4267.69,4696.41,4332.82,4367.69,4232.31,4458.97,4107.69,4023.08,4505.13,4264.1,3944.62,4665.64,4610.26,4388.72,1683,1680,11.268,0,0,0,0,0
125,4267.69,4696.41,4332.82,4367.69,4232.31,4463.59,4111.28,4020.51,4502.56,4264.1,3944.62,4665.64,4609.74,4388.21,1684,1681,11.283,0,0,0,0,0
126,4267.69,4695.9,4332.82,4367.69,4232.31,4463.59,4110.26,4016.41,4494.36,4264.1,3944.62,4665.64,4610.26,4383.08,1684,1679,11.283,0,0,0,0,0
127,4267.69,4696.41,4332.82,4367.69,4232.31,4457.95,4106.15,4013.33,4492.31,4264.1,3944.62,4665.64,4611.28,4377.44,1684,1682,11.299,0,0,0,0,0
128,4267.69,4696.41,4332.82,4367.69,4232.31,4468.21,4118.46,4021.54,4495.9,4264.1,3944.62,4665.64,4607.18,4386.15,1685,1682,11.299,0,0,0,0,0
0,4267.69,4694.36,4332.82,4367.69,4232.31,4473.85,4124.1,4024.62,4494.87,4264.1,3944.62,4665.64,4602.56,4397.95,1683,1684,11.315,0,0,0,0,0
1,4267.69,4695.38,4332.82,4367.69,4232.31,4462.56,4110.77,4017.44,4492.82,4264.1,3944.62,4665.64,4603.59,4395.38,1689,1691,11.315,0,0,0,0,0
2,4267.69,4700,4332.82,4367.69,4232.31,4463.08,4112.31,4019.49,4494.87,4264.1,3944.62,4665.64,4605.64,4395.9,1692,1692,11.33,0,0,0,0,0
3,4267.69,4702.56,4332.82,4367.69,4232.82,4474.36,4124.62,4023.59,4496.41,4264.1,3944.62,4665.64,4604.1,4398.46,1689,1689,11.33,0,0,0,0,0
4,4267.69,4700,4332.82,4367.69,4233.33,4472.82,4120,4016.92,4494.36,4264.1,3944.62,4665.64,4604.1,4390.26,1687,1686,11.346,0,0,0,0,0
5,4267.69,4697.44,4333.33,4367.69,4233.33,4468.21,4115.38,4017.95,4494.36,4264.1,3944.62,4665.64,4604.1,4387.18,1689,1685,11.346,0,0,0,0,0
6,4267.69,4697.44,4332.82,4367.69,4233.85,4464.1,4112.82,4022.56,4502.05,4264.1,3944.62,4665.64,4603.59,4388.72,1688,1686,11.361,0,0,0,0,0
7,4267.69,4697.95,4332.82,4367.69,4233.85,4456.92,4106.15,4016.92,4505.64,4264.1,3944.62,4665.64,4604.1,4384.62,1688,1688,11.361,0,0,0,0,0
8,4267.69,4697.44,4335.38,4367.69,4233.33,4466.67,4114.87,4022.05,4497.44,4264.1,3944.62,4665.64,4601.03,4392.82,1687,1685,11.377,0,0,0,0,0
9,4267.69,4697.44,4335.38,4367.69,4233.33,4480,4125.64,4026.15,4491.28,4264.1,3944.62,4665.64,4604.62,4401.03,1683,1683,11.377,0,0,0,0,0
10,4267.69,4698.46,4333.85,4367.69,4232.82,4471.79,4115.9,4011.79,4497.95,4264.1,3944.62,4665.64,4611.79,4390.26,1680,1676,11.393,0,0,0,0,0
11,4267.69,4698.97,4333.85,4367.69,4232.31,4462.05,4104.62,4004.62,4505.64,4264.1,3944.62,4665.64,4606.15,4382.56,1677,1671,11.393,0,0,0,0,0
12,4267.69,4698.97,4334.36,4367.69,4231.79,4465.64,4109.23,4010.26,4502.56,4264.1,3944.62,4665.64,4603.59,4384.1,1675,1668,11.408,0,0,0,0,0
13,4267.69,4696.92,4333.33,4367.69,4232.31,4472.31,4120.51,4013.85,4493.33,4264.1,3944.62,4665.64,4611.28,4380,1671,1667,11.408,0,0,0,0,0
14,4267.69,4695.38,4334.36,4367.69,4232.31,4475.38,4123.08,4020,4492.82,4264.1,3944.62,4665.64,4613.85,4382.56,1671,1666,11.424,0,0,0,0,0
15,4267.69,4696.41,4335.9,4367.69,4231.79,4469.74,4113.85,4022.05,4497.95,4264.1,3944.62,4665.64,4612.31,4388.21,1671,1667,11.424,0,0,0,0,0
16,4267.69,4697.44,4334.87,4367.69,4230.26,4459.49,4103.59,4012.82,4497.95,4264.1,3944.62,4665.64,4615.38,4385.13,1670,1670,11.44,0,0,0,0,0
17,4267.69,4694.87,4333.85,4367.69,4231.28,4464.62,4108.21,4013.85,4496.41,4264.1,3944.62,4665.64,4616.41,4389.74,1673,1673,11.44,0,0,0,0,0
18,4267.69,4694.87,4333.85,4367.69,4232.31,4474.36,4117.95,4024.1,4496.92,4264.1,3944.62,4665.64,4613.85,4400.51,1676,1679,11.455,0,0,0,0,0
19,4267.69,4696.41,4333.85,4367.69,4232.31,4466.15,4116.41,4023.08,4496.92,4263.59,3944.62,4665.64,4608.21,4397.44,1680,1683,11.455,0,0,0,0,0
20,4267.69,4696.41,4334.36,4367.69,4232.31,4454.87,4108.72,4017.95,4497.95,4263.59,3944.62,4665.64,4601.03,4391.28,1683,1688,11.471,0,0,0,0,0
21,4267.69,4695.9,4333.85,4367.69,4232.31,4465.13,4115.9,4021.54,4496.92,4263.59,3944.62,4665.64,4601.54,4395.9,1688,1690,11.471,0,0,0,0,0
22,4267.69,4696.41,4332.31,4367.69,4232.31,4473.85,4124.62,4026.15,4495.9,4263.08,3944.62,4665.64,4602.56,4398.46,1691,1692,11.487,0,0,0,0,0
23,4267.69,4696.41,4332.31,4367.69,4232.31,4463.59,4108.21,4014.87,4502.05,4263.59,3944.62,4665.64,4602.56,4388.72,1696,1692,11.487,0,0,0,0,0
24,4267.69,4696.41,4334.87,4367.69,4232.31,4453.33,4090.77,3999.49,4506.15,4264.62,3944.62,4665.64,4603.59,4381.54,1697,1691,11.503,0,0,0,0,0
25,4267.69,4696.41,4334.87,4367.69,4232.31,4462.56,4107.18,4010.26,4497.95,4265.13,3944.62,4665.64,4601.03,4388.21,1699,1691,11.503,0,0,0,0,0
26,4267.69,4696.41,4334.36,4367.69,4232.31,4474.36,4125.64,4028.72,4492.31,4264.1,3944.62,4665.64,4605.64,4397.44,1702,1689,11.518,0,0,0,0,0
27,4267.69,4696.41,4334.87,4367.69,4231.79,4473.33,4115.9,4022.05,4495.9,4264.62,3944.62,4665.64,4616.41,4394.87,1706,1690,11.518,0,0,0,0,0
28,4267.69,4696.41,4334.87,4367.69,4230.77,4471.28,4109.74,4016.41,4495.9,4265.64,3944.62,4665.64,4615.9,4391.28,1710,1690,11.534,0,0,0,0,0
29,4267.69,4696.41,4334.36,4367.69,4230.26,4467.69,4116.92,4023.59,4493.33,4265.64,3944.62,4665.64,4612.31,4386.67,1713,1690,11.534,0,0,0,0,0
30,4267.69,4696.41,4334.36,4367.69,4230.77,4459.49,4109.74,4021.03,4494.87,4265.13,3944.62,4665.64,4615.9,4383.59,1717,1688,11.55,0,0,0,0,0
31,4267.69,4696.41,4334.87,4367.69,4230.77,4458.46,4105.13,4016.41,4495.38,4265.64,3944.62,4665.64,4611.79,4394.87,1720,1683,11.55,0,0,0,0,0
32,4267.69,4696.41,4334.36,4367.69,4230.26,4464.62,4115.9,4023.08,4494.87,4265.64,3944.62,4665.64,4601.54,4404.1,1719,1680,11.565,0,0,0,0,0
33,4267.69,4696.41,4331.79,4367.69,4231.28,4461.03,4111.79,4022.05,4495.9,4265.64,3944.62,4665.64,4601.03,4389.74,1718,1677,11.565,0,0,0,0,0
34,4267.69,4696.41,4332.31,4367.69,4233.33,4453.33,4096.92,4008.21,4493.85,4265.64,3944.62,4665.64,4605.64,4373.85,1715,1675,11.581,0,0,0,0,0
35,4267.69,4696.41,4334.36,4367.69,4232.82,4464.1,4101.03,4006.67,4494.36,4265.64,3944.62,4665.64,4604.1,4376.41,1713,1674,11.581,0,0,0,0,0
36,4267.69,4696.41,4333.85,4367.69,4230.77,4480,4113.33,4021.54,4501.03,4265.64,3944.62,4665.64,4603.08,4386.67,1711,1675,11.597,0,0,0,0,0
37,4267.69,4696.41,4332.31,4367.69,4231.28,4472.82,4107.18,4024.62,4499.49,4265.64,3944.62,4665.64,4604.62,4385.13,1708,1676,11.597,0,0,0,0,0
38,4267.69,4696.41,4333.33,4367.69,4232.82,4454.87,4093.85,4007.18,4493.33,4265.64,3944.62,4665.64,4604.62,4377.44,1705,1677,11.612,0,0,0,0,0
39,4267.69,4696.41,4333.85,4367.69,4232.31,4454.36,4095.38,4002.56,4493.33,4265.64,3944.62,4665.64,4604.1,4375.38,1702,1680,11.612,0,0,0,0,0
40,4267.69,4696.41,4334.87,4367.69,4232.31,4465.64,4107.18,4018.97,4495.38,4265.64,3944.62,4665.64,4604.62,4378.46,1701,1679,11.628,0,0,0,0,0
41,4267.69,4696.41,4335.9,4367.69,4231.79,4466.67,4109.74,4024.1,4497.95,4265.64,3944.62,4665.64,4604.1,4377.95,1695,1681,11.628,0,0,0,0,0
42,4267.69,4696.41,4334.87,4367.69,4230.77,4464.62,4105.64,4011.28,4503.08,4265.64,3944.62,4665.64,4605.13,4373.33,1693,1683,11.643,0,0,0,0,0
43,4267.69,4696.41,4333.33,4367.69,4231.28,4468.72,4107.18,4010.77,4505.64,4265.64,3944.62,4665.64,4609.23,4374.87,1689,1683,11.643,0,0,0,0,0
44,4267.69,4696.41,4333.85,4367.69,4232.31,4473.85,4111.28,4022.56,4504.1,4265.64,3944.62,4665.64,4615.38,4385.13,1685,1685,11.659,0,0,0,0,0
45,4267.69,4696.41,4333.85,4367.69,4232.31,4475.38,4108.21,4019.49,4498.97,4265.64,3944.62,4665.64,4614.87,4385.64,1681,1685,11.659,0,0,0,0,0
46,4267.69,4696.41,4333.33,4367.69,4232.31,4470.26,4102.56,4006.15,4494.87,4265.64,3944.62,4665.64,4607.69,4374.87,1677,1686,11.675,0,0,0,0,0
47,4267.69,4696.41,4333.85,4367.69,4231.28,4462.56,4102.05,4004.62,4494.36,4265.64,3944.62,4665.64,4601.03,4370.77,1675,1686,11.675,0,0,0,0,0
48,4267.69,4696.41,4334.36,4367.69,4230.26,4463.59,4106.67,4013.33,4494.36,4265.64,3944.62,4665.64,4602.56,4371.28,1671,1688,11.69,0,0,0,0,0
49,4267.69,4696.41,4334.36,4367.69,4231.28,4475.9,4110.26,4020,4500,4265.64,3944.62,4665.64,4610.77,4371.28,1672,1688,11.69,0,0,0,0,0
50,4267.69,4696.41,4334.87,4367.69,4231.79,4483.59,4110.77,4021.54,4506.15,4265.64,3944.62,4665.64,4615.38,4374.36,1672,1692,11.706,0,0,0,0,0
51,4267.69,4696.41,4335.9,4367.69,4231.79,4471.28,4108.21,4017.44,4497.44,4265.64,3944.62,4665.64,4614.87,4369.74,1676,1693,11.706,0,0,0,0,0
52,4267.69,4696.41,4335.9,4367.69,4231.79,4464.1,4107.18,4017.44,4491.28,4265.64,3944.62,4665.64,4613.85,4363.59,1675,1694,11.722,0,0,0,0,0
53,4267.69,4696.41,4334.87,4367.69,4232.31,4474.36,4108.72,4020,4502.05,4265.64,3944.62,4665.64,4615.38,4369.74,1677,1694,11.722,0,0,0,0,0
54,4267.69,4696.41,4334.36,4367.69,4231.79,4473.85,4105.64,4015.38,4509.23,4265.64,3944.62,4665.64,4616.41,4375.9,1677,1692,11.737,0,0,0,0,0
55,4267.69,4696.41,4334.87,4367.69,4231.79,4458.97,4099.49,4010.77,4500.51,4265.64,3944.62,4665.64,4608.72,4371.79,1677,1691,11.737,0,0,0,0,0
56,4267.69,4696.41,4334.87,4368.21,4231.79,4458.97,4096.41,4012.31,4493.33,4265.64,3944.62,4665.64,4601.03,4370.26,1677,1686,11.753,0,0,0,0,0
57,4267.69,4696.41,4333.33,4367.69,4231.79,4465.13,4096.92,4013.33,4494.87,4265.64,3944.62,4665.64,4601.54,4375.38,1676,1684,11.753,0,0,0,0,0
58,4267.69,4696.41,4332.31,4367.69,4231.79,4457.44,4097.95,4012.82,4496.41,4265.64,3944.62,4665.64,4602.56,4380,1676,1679,11.768,0,0,0,0,0
59,4267.69,4696.41,4332.31,4370.26,4232.31,4458.46,4095.9,4012.31,4494.87,4265.64,3944.62,4665.64,4601.54,4382.56,1677,1677,11.768,0,0,0,0,0
60,4267.69,4696.41,4332.31,4372.82,4232.31,4464.62,4094.87,4010.77,4493.85,4265.64,3944.62,4665.64,4610.26,4381.54,1679,1674,11.784,0,0,0,0,0
61,4267.69,4696.41,4332.31,4373.85,4232.31,4461.54,4102.05,4012.31,4494.87,4265.64,3944.62,4665.64,4617.44,4380.51,1679,1674,11.784,0,0,0,0,0
62,4267.69,4696.41,4332.31,4370.77,4232.31,4461.03,4107.18,4012.31,4493.33,4265.64,3944.62,4665.64,4615.38,4380,1681,1673,11.8,0,0,0,0,0
63,4267.69,4696.41,4332.31,4367.69,4232.31,4458.46,4101.54,4007.18,4494.87,4265.64,3944.62,4665.64,4615.38,4378.46,1680,1673,11.8,0,0,0,0,0
64,4267.69,4696.41,4332.31,4368.21,4232.31,4460,4101.03,4008.21,4502.56,4265.64,3944.62,4665.64,4616.92,4383.08,1680,1673,11.815,0,0,0,0,0
65,4267.69,4696.41,4332.31,4369.74,4232.31,4474.36,4110.77,4020,4505.13,4265.64,3944.62,4665.64,4615.9,4389.74,1676,1671,11.815,0,0,0,0,0
66,4267.69,4696.41,4332.31,4369.23,4232.31,4475.38,4108.21,4020,4501.03,4265.64,3944.62,4665.64,4615.38,4385.64,1671,1670,11.831,0,0,0,0,0
67,4267.69,4696.41,4332.31,4368.72,4232.31,4460,4096.92,4006.67,4505.64,4265.64,3944.62,4665.64,4613.85,4380.51,1668,1667,11.831,0,0,0,0,0
68,4267.69,4696.41,4332.31,4368.72,4232.31,4455.38,4097.44,4007.18,4504.1,4265.64,3944.62,4665.64,4615.38,4386.67,1662,1667,11.847,0,0,0,0,0
69,4267.69,4696.41,4332.31,4367.69,4232.31,4460.51,4103.59,4013.85,4491.79,4265.64,3944.62,4665.64,4616.92,4385.13,1661,1667,11.847,0,0,0,0,0
70,4267.69,4696.41,4332.31,4368.21,4232.31,4462.05,4104.1,4007.69,4496.41,4265.64,3944.62,4665.64,4607.69,4384.1,1658,1669,11.862,0,0,0,0,0
71,4267.69,4696.41,4332.31,4368.21,4232.31,4461.03,4105.13,4004.62,4506.15,4265.64,3944.62,4665.64,4603.08,4394.36,1658,1672,11.862,0,0,0,0,0
72,4267.69,4696.41,4332.31,4367.69,4232.31,4458.46,4106.67,4012.82,4497.95,4265.64,3944.62,4665.64,4611.79,4395.38,1658,1677,11.878,0,0,0,0,0
73,4267.69,4696.41,4332.31,4368.21,4232.31,4465.64,4111.79,4015.9,4490.77,4265.64,3944.62,4665.64,4614.36,4390.77,1660,1681,11.878,0,0,0,0,0
74,4267.69,4696.41,4332.31,4368.21,4232.31,4476.92,4117.95,4016.92,4494.87,4265.64,3944.62,4665.64,4607.18,4398.97,1662,1687,11.893,0,0,0,0,0
75,4267.69,4696.41,4332.31,4368.21,4232.31,4471.79,4112.82,4023.08,4493.33,4265.64,3944.62,4665.64,4608.72,4399.49,1666,1696,11.893,0,0,0,0,0
76,4267.69,4696.41,4332.31,4368.21,4232.31,4458.97,4103.59,4017.95,4489.23,4265.64,3944.62,4665.64,4613.33,4387.69,1670,1702,11.909,0,0,0,0,0
77,4267.69,4696.41,4332.31,4368.21,4232.31,4459.49,4103.59,4007.18,4490.77,4264.1,3944.62,4665.64,4605.13,4389.23,1675,1711,11.909,0,0,0,0,0
78,4267.69,4696.41,4332.31,4368.21,4232.31,4465.13,4105.13,4006.15,4491.28,4262.56,3944.62,4665.64,4602.56,4400,1681,1716,11.925,0,0,0,0,0
79,4267.69,4696.41,4332.31,4368.21,4232.31,4463.08,4104.1,4009.23,4490.77,4262.56,3944.62,4665.64,4611.28,4398.97,1685,1721,11.925,0,0,0,0,0
80,4267.69,4696.41,4332.31,4368.21,4232.31,4457.95,4104.62,4004.1,4490.77,4264.1,3944.62,4665.64,4616.41,4397.44,1691,1723,11.94,0,0,0,0,0
81,4267.69,4696.41,4332.31,4368.21,4232.31,4462.05,4106.67,4003.08,4490.77,4265.13,3944.62,4665.64,4614.87,4407.69,1695,1723,11.94,0,0,0,0,0
82,4267.69,4696.41,4332.31,4368.21,4232.31,4473.85,4109.23,4016.41,4490.77,4265.64,3944.62,4665.64,4613.85,4412.82,1700,1720,11.956,0,0,0,0,0
83,4267.69,4696.41,4332.31,4368.21,4232.31,4477.95,4110.26,4022.56,4490.77,4265.64,3944.62,4665.64,4614.36,4408.72,1702,1714,11.956,0,0,0,0,0
84,4267.69,4696.41,4332.31,4368.21,4232.31,4469.74,4108.72,4017.95,4490.77,4265.64,3944.62,4665.64,4611.79,4411.28,1705,1708,11.972,0,0,0,0,0
85,4267.69,4696.41,4332.31,4368.21,4232.31,4461.54,4106.67,4013.33,4490.77,4265.64,3944.62,4665.64,4609.74,4409.23,1704,1699,11.972,0,0,0,0,0
86,4267.69,4696.41,4332.31,4368.21,4232.31,4458.46,4101.54,4007.18,4490.77,4263.59,3944.62,4665.64,4603.08,4398.46,1705,1692,11.987,0,0,0,0,0
87,4267.69,4696.41,4332.31,4368.21,4232.31,4458.46,4095.9,4004.1,4490.77,4262.56,3944.62,4665.64,4598.97,4395.9,1707,1680,11.987,0,0,0,0,0
88,4267.69,4696.41,4332.31,4368.21,4232.31,4457.44,4094.87,4000.51,4490.77,4263.08,3944.62,4665.64,4607.18,4398.46,1709,1675,12.003,0,0,0,0,0
89,4267.69,4696.41,4332.31,4368.21,4232.31,4457.95,4101.54,4002.56,4490.77,4264.1,3944.62,4665.64,4613.33,4396.92,1706,1671,12.003,0,0,0,0,0
90,4267.69,4696.41,4332.31,4368.21,4232.31,4460.51,4108.21,4011.28,4490.77,4264.1,3944.62,4665.64,4610.77,4397.95,1705,1667,12.018,0,0,0,0,0
91,4267.69,4696.41,4332.31,4368.21,4232.31,4460,4103.59,4010.26,4490.77,4264.62,3944.62,4665.64,4608.72,4398.97,1700,1661,12.018,0,0,0,0,0
92,4267.69,4696.41,4332.31,4368.21,4232.31,4456.41,4095.38,4002.56,4490.77,4265.13,3944.62,4665.64,4610.77,4400.51,1695,1656,12.034,0,0,0,0,0
93,4267.69,4696.41,4332.31,4368.21,4232.31,4457.95,4098.97,4007.18,4490.77,4265.13,3944.62,4665.64,4610.26,4402.05,1689,1651,12.034,0,0,0,0,0
94,4267.69,4696.41,4332.31,4368.21,4232.31,4461.54,4106.15,4011.79,4490.77,4265.13,3944.62,4665.64,4608.72,4405.64,1684,1649,12.05,0,0,0,0,0
95,4267.69,4696.41,4332.31,4368.21,4232.31,4458.97,4104.1,4004.62,4490.77,4264.62,3944.62,4665.64,4610.26,4412.31,1679,1647,12.05,0,0,0,0,0
96,4267.69,4696.41,4332.31,4368.21,4232.31,4456.41,4102.05,4004.1,4490.77,4264.62,3944.62,4665.64,4610.77,4408.72,1675,1651,12.065,0,0,0,0,0
97,4267.69,4696.41,4332.31,4368.21,4232.31,4459.49,4102.56,4008.21,4490.77,4264.62,3944.62,4665.64,4610.77,4395.9,1675,1654,12.065,0,0,0,0,0
98,4267.69,4696.41,4332.31,4368.21,4232.31,4460,4102.56,4005.64,4490.77,4264.62,3944.62,4665.64,4610.26,4401.03,1674,1663,12.081,0,0,0,0,0
99,4267.69,4696.41,4332.31,4368.21,4232.31,4457.95,4103.59,4005.13,4490.77,4264.62,3944.62,4665.64,4611.79,4415.9,1676,1673,12.081,0,0,0,0,0
100,4267.69,4696.41,4332.31,4368.21,4232.31,4457.44,4105.13,4005.64,4490.77,4264.62,3944.62,4665.64,4615.38,4410.26,1678,1682,12.097,0,0,0,0,0
101,4267.69,4696.41,4332.31,4368.21,4232.31,4456.92,4103.59,4005.13,4490.77,4264.62,3944.62,4665.64,4617.44,4395.9,1681,1691,12.097,0,0,0,0,0
102,4267.69,4696.41,4332.31,4368.21,4232.31,4458.46,4103.59,4007.69,4490.77,4264.62,3944.62,4665.64,4614.36,4395.9,1684,1699,12.112,0,0,0,0,0
103,4267.69,4696.41,4332.31,4368.21,4232.31,4460,4105.13,4007.69,4490.77,4264.62,3944.62,4665.64,4611.28,4400.51,1688,1704,12.112,0,0,0,0,0
104,4267.69,4696.41,4332.31,4368.21,4232.31,4457.95,4103.59,4005.64,4490.77,4264.62,3944.62,4665.64,4610.77,4398.46,1691,1709,12.128,0,0,0,0,0
105,4267.69,4696.41,4332.31,4368.21,4232.31,4455.38,4104.1,4007.18,4489.74,4264.62,3944.62,4665.64,4607.18,4393.85,1694,1710,12.128,0,0,0,0,0
106,4267.69,4696.41,4332.31,4368.21,4232.82,4456.92,4105.64,4008.72,4491.28,4264.62,3944.62,4665.64,4602.56,4397.44,1696,1708,12.143,0,0,0,0,0
107,4267.69,4696.41,4332.31,4368.21,4232.31,4457.95,4103.08,4004.1,4490.77,4264.62,3944.62,4665.64,4603.08,4403.59,1697,1706,12.143,0,0,0,0,0
108,4267.69,4696.41,4332.31,4368.21,4232.31,4458.97,4103.59,4003.59,4489.74,4264.62,3944.62,4665.64,4604.1,4401.03,1700,1700,12.159,0,0,0,0,0
109,4267.69,4696.41,4332.31,4368.21,4233.85,4460.51,4108.72,4018.97,4496.41,4264.62,3944.62,4665.64,4602.56,4405.13,1699,1696,12.159,0,0,0,0,0
110,4267.69,4696.41,4332.31,4368.21,4233.85,4456.92,4107.18,4022.56,4505.64,4264.62,3944.62,4665.64,4604.1,4411.28,1701,1690,12.175,0,0,0,0,0
111,4267.69,4696.41,4332.31,4368.21,4232.31,4456.41,4105.13,4011.28,4508.21,4264.62,3944.62,4665.64,4604.1,4408.21,1699,1684,12.175,0,0,0,0,0
112,4267.69,4696.41,4332.31,4368.21,4231.79,4461.03,4107.18,4009.74,4501.54,4264.62,3944.62,4665.64,4602.56,4407.18,1700,1681,12.19,0,0,0,0,0
113,4267.69,4696.41,4332.31,4368.21,4232.31,4455.38,4096.92,4012.31,4494.87,4264.62,3944.62,4665.64,4604.1,4409.74,1698,1677,12.19,0,0,0,0,0
114,4267.69,4696.41,4332.31,4368.21,4232.31,4445.13,4088.72,4005.13,4493.33,4264.62,3944.62,4665.64,4602.05,4408.21,1695,1674,12.206,0,0,0,0,0
115,4267.69,4696.41,4332.31,4368.21,4232.31,4454.87,4101.03,4002.05,4494.87,4264.62,3944.62,4665.64,4603.59,4407.18,1691,1670,12.206,0,0,0,0,0
116,4267.69,4696.41,4332.31,4368.21,4232.31,4466.67,4107.69,4007.69,4493.85,4264.62,3944.62,4665.64,4611.79,4407.18,1686,1667,12.222,0,0,0,0,0
117,4267.69,4696.41,4332.31,4368.21,4232.31,4450.77,4092.31,4003.08,4492.82,4264.62,3944.62,4665.64,4613.33,4400.51,1679,1661,12.222,0,0,0,0,0
118,4267.69,4696.41,4332.31,4368.21,4232.31,4440,4086.67,3998.97,4493.85,4264.62,3944.62,4665.64,4609.74,4400,1672,1658,12.237,0,0,0,0,0
119,4267.69,4696.41,4332.31,4368.21,4232.31,4456.92,4102.56,4009.23,4494.87,4264.62,3944.62,4665.64,4610.77,4405.13,1668,1656,12.237,0,0,0,0,0
120,4267.69,4696.41,4332.31,4368.21,4232.31,4464.62,4109.74,4015.38,4495.38,4264.62,3944.62,4665.64,4612.31,4405.64,1663,1657,12.253,0,0,0,0,0
121,4267.69,4696.41,4332.31,4368.21,4232.31,4454.36,4099.49,4008.72,4494.36,4264.62,3944.62,4665.64,4610.26,4401.03,1661,1661,12.253,0,0,0,0,0
122,4267.69,4696.41,4332.31,4368.21,4232.31,4454.87,4094.36,4003.08,4493.85,4264.1,3944.62,4665.64,4610.77,4393.33,1660,1666,12.268,0,0,0,0,0
123,4267.69,4696.41,4332.31,4368.21,4232.31,4465.64,4104.1,4012.31,4494.36,4263.59,3944.62,4665.64,4609.74,4400.51,1661,1672,12.268,0,0,0,0,0
124,4267.69,4696.41,4332.31,4368.21,4232.31,4458.46,4106.15,4015.38,4493.85,4264.62,3944.62,4665.64,4610.77,4412.82,1663,1679,12.284,0,0,0,0,0
125,4267.69,4696.41,4332.31,4368.21,4232.31,4442.05,4098.46,4005.64,4493.85,4264.62,3944.62,4665.64,4611.79,4405.13,1666,1688,12.284,0,0,0,0,0
126,4267.69,4696.41,4332.31,4368.21,4232.31,4447.18,4096.92,4003.08,4493.85,4264.62,3944.62,4665.64,4604.1,4394.87,1670,1696,12.3,0,0,0,0,0
127,4267.69,4696.41,4332.31,4368.21,4232.31,4456.92,4095.38,4000.51,4493.33,4264.62,3944.62,4665.64,4605.64,4398.46,1675,1704,12.3,0,0,0,0,0
128,4267.69,4696.41,4332.31,4368.21,4232.31,4449.23,4088.72,3991.79,4494.36,4264.62,3944.62,4665.64,4613.33,4392.31,1680,1711,12.315,0,0,0,0,0
0,4267.69,4696.41,4332.31,4368.21,4232.31,4439.49,4086.67,3993.33,4494.87,4264.62,3944.62,4665.64,4605.13,4381.54,1685,1718,12.315,0,0,0,0,0
1,4267.69,4696.41,4332.31,4368.21,4232.31,4444.62,4095.38,4007.18,4491.79,4264.62,3944.62,4665.64,4602.05,4387.18,1691,1719,12.331,0,0,0,0,0
2,4267.69,4696.41,4332.31,4368.21,4231.28,4450.26,4102.05,4008.72,4496.92,4264.62,3944.62,4665.64,4612.82,4396.92,1694,1720,12.331,0,0,0,0,0
3,4267.69,4696.41,4332.31,4368.21,4230.26,4454.36,4097.95,4001.03,4504.62,4264.62,3944.62,4665.64,4610.26,4397.44,1699,1718,12.347,0,0,0,0,0
4,4267.69,4696.41,4332.31,4368.21,4230.77,4458.46,4097.44,4005.64,4498.97,4264.62,3944.62,4665.64,4598.46,4400,1700,1710,12.347,0,0,0,0,0
5,4267.69,4696.41,4332.31,4368.21,4230.77,4453.33,4104.62,4012.82,4492.31,4264.62,3944.62,4665.64,4601.03,4400,1701,1703,12.362,0,0,0,0,0
6,4267.69,4696.41,4332.31,4368.21,4230.26,4450.77,4107.69,4013.85,4495.38,4264.62,3944.62,4665.64,4604.62,4394.87,1701,1694,12.362,0,0,0,0,0
7,4267.69,4696.41,4332.31,4368.21,4231.79,4457.44,4106.15,4014.87,4495.38,4264.62,3944.62,4665.64,4602.05,4396.92,1701,1688,12.378,0,0,0,0,0
8,4267.69,4696.41,4332.31,4368.21,4232.31,4460.51,4106.67,4010.26,4495.38,4264.62,3944.62,4665.64,4601.03,4398.46,1701,1681,12.378,0,0,0,0,0
9,4267.69,4696.41,4332.31,4368.21,4230.77,4458.46,4107.18,4009.74,4502.56,4264.62,3944.62,4665.64,4601.03,4389.23,1699,1675,12.393,0,0,0,0,0
10,4267.69,4696.41,4332.31,4368.21,4231.28,4460,4107.69,4016.92,4504.62,4264.62,3944.62,4665.64,4602.56,4380.51,1698,1671,12.393,0,0,0,0,0
11,4267.69,4696.41,4332.31,4368.21,4232.82,4462.05,4108.72,4016.92,4502.56,4264.62,3944.62,4665.64,4600.51,4382.05,1695,1667,12.409,0,0,0,0,0
12,4267.69,4696.41,4332.31,4368.21,4232.31,4461.54,4107.69,4013.85,4503.59,4264.62,3944.62,4665.64,4601.54,4385.13,1692,1663,12.409,0,0,0,0,0
13,4267.69,4696.41,4332.31,4368.21,4231.79,4463.08,4107.69,4015.9,4504.1,4264.62,3944.62,4665.64,4609.74,4383.08,1682,1657,12.425,0,0,0,0,0
14,4267.69,4696.41,4332.31,4368.21,4232.31,4460,4103.08,4010.77,4503.59,4264.62,3944.62,4665.64,4613.85,4373.85,1676,1654,12.425,0,0,0,0,0
15,4267.69,4695.9,4332.31,4368.21,4232.82,4457.95,4096.92,4001.03,4503.59,4264.62,3944.62,4665.64,4610.77,4364.62,1670,1654,12.44,0,0,0,0,0
16,4267.69,4695.9,4332.31,4368.21,4231.28,4463.59,4100.51,4003.08,4503.08,4264.62,3944.62,4665.64,4609.74,4365.13,1666,1655,12.44,0,0,0,0,0
17,4267.69,4696.41,4332.31,4368.21,4231.28,4465.13,4108.21,4008.72,4502.56,4264.62,3944.62,4665.64,4611.79,4365.13,1664,1661,12.456,0,0,0,0,0
18,4267.69,4695.38,4332.31,4368.21,4231.79,4465.64,4110.26,4012.31,4502.56,4264.62,3944.62,4665.64,4611.79,4360,1665,1667,12.456,0,0,0,0,0
19,4267.69,4695.38,4332.31,4368.21,4231.28,4474.87,4110.77,4016.41,4502.56,4264.62,3944.62,4665.64,4608.21,4362.05,1666,1675,12.472,0,0,0,0,0
20,4267.69,4696.92,4332.31,4368.21,4230.77,4477.44,4113.33,4016.92,4502.56,4264.62,3944.62,4665.64,4603.08,4366.67,1669,1682,12.472,0,0,0,0,0
21,4267.69,4698.46,4332.31,4368.21,4231.79,4466.15,4107.18,4012.31,4502.56,4264.62,3944.62,4665.64,4601.03,4365.64,1671,1692,12.487,0,0,0,0,0
22,4267.69,4697.95,4332.31,4368.21,4232.82,4457.95,4097.95,4005.13,4502.56,4264.62,3944.62,4665.64,4602.56,4363.08,1677,1699,12.487,0,0,0,0,0
23,4267.69,4696.92,4332.31,4368.21,4231.79,4460.51,4101.03,4006.67,4502.56,4264.62,3944.62,4665.64,4602.56,4363.08,1681,1705,12.503,0,0,0,0,0
24,4267.69,4695.38,4332.31,4368.21,4232.31,4465.64,4110.26,4013.85,4502.56,4264.62,3944.62,4665.64,4602.56,4364.1,1685,1712,12.503,0,0,0,0,0
25,4267.69,4694.87,4332.31,4368.21,4232.82,4464.62,4107.18,4014.36,4503.08,4264.62,3944.62,4665.64,4602.56,4366.15,1689,1713,12.518,0,0,0,0,0
26,4267.69,4696.41,4332.31,4368.21,4231.79,4458.46,4101.54,4012.31,4502.56,4264.62,3944.62,4665.64,4601.54,4365.13,1692,1713,12.518,0,0,0,0,0
27,4267.69,4696.41,4332.31,4368.21,4230.77,4456.41,4101.03,4011.28,4501.54,4264.62,3944.62,4665.64,4603.08,4364.1,1695,1710,12.534,0,0,0,0,0
28,4267.69,4695.9,4332.31,4368.21,4231.28,4460,4098.46,4006.15,4504.62,4264.62,3944.62,4665.64,4601.54,4365.64,1696,1705,12.534,0,0,0,0,0
29,4267.69,4696.41,4332.31,4368.21,4231.79,4460,4097.44,4003.59,4502.05,4264.62,3944.62,4665.64,4601.03,4362.05,1697,1697,12.55,0,0,0,0,0
30,4267.69,4696.41,4332.31,4368.21,4230.77,4459.49,4103.08,4009.23,4492.31,4264.62,3944.62,4665.64,4609.74,4354.87,1695,1689,12.55,0,0,0,0,0
31,4267.69,4696.41,4332.31,4368.21,4231.28,4461.03,4104.62,4012.31,4496.41,4264.62,3944.62,4665.64,4616.41,4358.97,1697,1681,12.565,0,0,0,0,0
32,4267.69,4696.41,4332.31,4368.21,4232.31,4461.03,4104.62,4016.41,4508.72,4264.62,3944.62,4665.64,4615.38,4371.79,1695,1674,12.565,0,0,0,0,0
33,4267.69,4696.41,4332.31,4368.21,4232.31,4460.51,4107.69,4020,4503.08,4264.62,3944.62,4665.64,4614.87,4374.36,1698,1671,12.581,0,0,0,0,0
34,4267.69,4696.41,4332.31,4368.21,4231.79,4461.03,4106.67,4014.87,4491.28,4264.62,3944.62,4665.64,4615.38,4366.15,1698,1669,12.581,0,0,0,0,0
35,4267.69,4696.41,4332.31,4368.21,4232.31,4461.03,4104.62,4013.85,4492.82,4264.62,3944.62,4665.64,4613.33,4364.62,1698,1669,12.597,0,0,0,0,0
36,4267.69,4696.41,4332.31,4368.21,4232.82,4459.49,4105.13,4014.87,4496.92,4264.62,3944.62,4665.64,4615.9,4367.69,1696,1667,12.597,0,0,0,0,0
37,4267.69,4696.41,4332.31,4368.21,4231.28,4460,4104.62,4013.85,4494.36,4264.62,3944.62,4665.64,4615.38,4364.62,1693,1665,12.612,0,0,0,0,0
38,4267.69,4696.41,4332.31,4368.21,4231.28,4462.05,4105.13,4015.9,4494.36,4264.62,3944.62,4665.64,4605.64,4365.64,1689,1662,12.612,0,0,0,0,0
39,4267.69,4696.41,4332.31,4368.21,4231.79,4460.51,4107.18,4016.92,4495.38,4264.62,3944.62,4665.64,4600.51,4371.79,1682,1659,12.628,0,0,0,0,0
40,4267.69,4696.41,4332.31,4368.21,4231.28,4464.62,4108.21,4014.87,4494.87,4264.62,3944.62,4665.64,4606.67,4367.69,1676,1657,12.628,0,0,0,0,0
41,4267.69,4696.41,4332.31,4368.21,4230.77,4472.31,4108.72,4017.95,4494.87,4264.62,3944.62,4665.64,4615.38,4363.59,1670,1655,12.643,0,0,0,0,0
42,4267.69,4696.41,4332.31,4368.21,4231.79,4469.23,4110.26,4017.95,4496.41,4264.62,3944.62,4665.64,4615.9,4373.33,1666,1656,12.643,0,0,0,0,0
43,4267.69,4696.41,4332.31,4368.21,4231.79,4460,4106.15,4011.28,4494.36,4264.62,3944.62,4665.64,4608.21,4376.41,1662,1660,12.659,0,0,0,0,0
44,4267.69,4696.41,4332.31,4368.21,4230.77,4452.31,4092.82,4005.64,4494.36,4264.1,3944.62,4665.64,4602.56,4363.59,1662,1666,12.659,0,0,0,0,0
45,4267.69,4696.41,4332.31,4368.21,4230.26,4446.67,4087.18,4002.05,4500.51,4265.13,3944.62,4665.64,4602.56,4364.1,1662,1672,12.675,0,0,0,0,0
46,4267.69,4696.41,4332.31,4368.21,4231.28,4457.95,4102.05,4010.26,4500,4264.1,3944.62,4665.64,4604.62,4381.54,1663,1682,12.675,0,0,0,0,0
47,4267.69,4696.41,4332.31,4368.21,4233.85,4474.36,4115.38,4023.59,4492.82,4261.54,3944.62,4665.64,4610.77,4388.72,1668,1689,12.69,0,0,0,0,0
48,4267.69,4696.41,4332.31,4368.21,4232.82,4467.18,4105.64,4014.87,4493.33,4262.56,3944.62,4665.64,4618.97,4380,1670,1700,12.69,0,0,0,0,0
49,4267.69,4696.41,4332.31,4368.21,4230.77,4457.44,4095.9,4002.56,4495.9,4265.64,3944.62,4665.64,4615.38,4374.36,1677,1708,12.706,0,0,0,0,0
50,4267.69,4696.41,4332.31,4368.21,4231.79,4461.03,4102.05,4005.13,4493.85,4265.64,3944.62,4665.64,4604.62,4371.79,1681,1715,12.706,0,0,0,0,0
51,4267.69,4696.41,4332.31,4368.21,4232.82,4460,4103.08,4007.18,4494.87,4264.62,3944.62,4665.64,4602.05,4367.18,1687,1720,12.722,0,0,0,0,0
52,4267.69,4696.41,4332.31,4368.21,4232.31,4454.87,4091.28,4002.05,4494.87,4265.13,3944.62,4665.64,4604.62,4364.62,1692,1721,12.722,0,0,0,0,0
53,4267.69,4696.41,4332.31,4368.21,4232.31,4455.38,4088.72,4001.03,4492.82,4265.13,3944.62,4665.64,4604.62,4363.08,1697,1721,12.737,0,0,0,0,0
54,4267.69,4696.41,4332.31,4368.21,4232.31,4460,4101.03,4011.79,4502.05,4264.62,3944.62,4665.64,4602.56,4366.15,1699,1716,12.737,0,0,0,0,0
55,4267.69,4696.41,4332.31,4368.21,4232.31,4462.05,4107.18,4017.95,4507.18,4264.62,3944.62,4665.64,4604.1,4371.28,1702,1711,12.753,0,0,0,0,0
56,4267.69,4696.41,4332.31,4368.21,4232.31,4462.56,4106.15,4015.9,4495.38,4264.62,3944.62,4665.64,4604.62,4374.87,1702,1704,12.753,0,0,0,0,0
57,4267.69,4696.41,4332.31,4368.21,4232.31,4459.49,4104.62,4016.41,4492.31,4264.62,3944.62,4665.64,4604.62,4376.41,1703,1698,12.768,0,0,0,0,0
58,4267.69,4696.41,4332.31,4368.21,4232.31,4461.03,4106.15,4020.51,4504.62,4264.62,3944.62,4665.64,4604.62,4378.97,1703,1687,12.768,0,0,0,0,0
59,4267.69,4696.41,4332.31,4368.21,4232.31,4471.79,4114.87,4020,4507.69,4264.62,3944.62,4665.64,4603.08,4383.59,1701,1682,12.784,0,0,0,0,0
60,4267.69,4696.41,4332.31,4368.21,4232.31,4476.92,4119.49,4019.49,4503.59,4264.62,3944.62,4665.64,4605.64,4383.08,1703,1676,12.784,0,0,0,0,0
61,4267.69,4696.41,4332.31,4368.21,4232.31,4467.18,4111.28,4022.05,4505.64,4264.62,3944.62,4665.64,4610.26,4378.46,1701,1669,12.8,0,0,0,0,0
62,4267.69,4696.41,4332.31,4368.21,4232.31,4457.95,4103.08,4018.46,4501.54,4264.62,3944.62,4665.64,4611.79,4374.87,1701,1666,12.8,0,0,0,0,0
63,4267.69,4696.41,4332.31,4368.21,4232.31,4462.05,4106.15,4016.92,4490.77,4264.62,3944.62,4665.64,4610.26,4378.97,1698,1662,12.815,0,0,0,0,0
64,4267.69,4696.41,4332.31,4368.21,4232.31,4467.18,4110.77,4025.64,4494.36,4264.62,3944.62,4665.64,4610.26,4389.23,1695,1660,12.815,0,0,0,0,0
65,4267.69,4696.41,4332.31,4368.21,4232.31,4464.1,4110.77,4031.28,4506.15,4264.62,3944.62,4665.64,4610.26,4391.79,1691,1658,12.831,0,0,0,0,0
66,4267.69,4696.41,4332.31,4368.21,4232.31,4460.51,4106.67,4024.62,4504.62,4264.62,3944.62,4665.64,4610.26,4384.62,1686,1658,12.831,0,0,0,0,0
67,4267.69,4696.41,4332.31,4368.21,4232.31,4461.54,4106.67,4022.05,4494.36,4264.62,3944.62,4665.64,4610.26,4382.56,1683,1659,12.847,0,0,0,0,0
68,4267.69,4696.41,4332.31,4368.21,4231.79,4465.13,4111.79,4028.72,4493.33,4264.62,3944.62,4665.64,4610.26,4385.13,1677,1666,12.847,0,0,0,0,0
69,4267.69,4696.41,4332.31,4368.21,4230.77,4463.08,4105.64,4023.08,4496.41,4264.62,3944.62,4665.64,4609.74,4378.46,1674,1672,12.862,0,0,0,0,0
70,4267.69,4696.41,4332.82,4368.21,4231.28,4456.41,4097.44,4010.26,4495.9,4264.62,3944.62,4665.64,4610.26,4370.77,1675,1680,12.862,0,0,0,0,0
71,4267.69,4696.41,4332.82,4368.21,4232.31,4458.46,4102.56,4010.77,4495.9,4264.62,3944.62,4665.64,4610.77,4373.85,1675,1687,12.878,0,0,0,0,0
72,4267.69,4696.41,4331.79,4368.21,4232.31,4460,4101.54,4007.18,4495.9,4264.62,3944.62,4665.64,4610.77,4372.82,1677,1697,12.878,0,0,0,0,0
73,4267.69,4696.41,4332.31,4368.21,4231.79,4449.23,4089.74,3992.82,4494.36,4264.62,3944.62,4665.64,4610.77,4370.26,1679,1703,12.893,0,0,0,0,0
74,4267.69,4696.41,4333.85,4368.21,4232.31,4440,4087.18,3991.79,4495.38,4264.62,3944.62,4665.64,4615.9,4373.85,1681,1711,12.893,0,0,0,0,0
75,4267.69,4696.41,4329.23,4368.21,4232.31,4448.21,4091.28,3999.49,4496.41,4264.62,3944.62,4665.64,4616.92,4372.82,1683,1714,12.909,0,0,0,0,0
76,4267.69,4696.41,4326.15,4368.21,4232.31,4457.44,4097.44,4007.69,4495.38,4264.62,3944.62,4665.64,4606.67,4370.77,1685,1718,12.909,0,0,0,0,0
77,4267.69,4696.41,4332.82,4368.21,4232.31,4456.92,4103.08,4012.82,4495.9,4264.62,3944.62,4665.64,4599.49,4372.31,1686,1715,12.925,0,0,0,0,0
78,4267.69,4696.41,4337.44,4368.21,4232.31,4456.92,4099.49,4008.72,4495.38,4264.62,3944.62,4665.64,4602.05,4374.87,1685,1714,12.925,0,0,0,0,0
79,4267.69,4696.41,4332.82,4368.21,4232.31,4459.49,4098.46,4005.64,4495.38,4264.62,3944.62,4665.64,4602.05,4379.49,1687,1708,12.94,0,0,0,0,0
80,4267.69,4696.41,4330.26,4368.21,4232.31,4459.49,4105.13,4011.28,4496.92,4264.62,3944.62,4665.64,4603.08,4378.46,1685,1700,12.94,0,0,0,0,0
81,4267.69,4696.41,4331.79,4368.21,4232.31,4457.95,4104.62,4010.26,4494.36,4264.62,3944.62,4665.64,4609.74,4369.23,1685,1694,12.956,0,0,0,0,0
82,4267.69,4696.41,4331.79,4368.21,4232.31,4458.46,4099.49,4003.08,4495.9,4264.62,3944.62,4665.64,4611.79,4365.13,1684,1685,12.956,0,0,0,0,0
83,4267.69,4696.41,4331.28,4368.21,4232.31,4459.49,4098.46,4004.62,4503.59,4264.62,3944.62,4665.64,4610.26,4367.69,1682,1679,12.972,0,0,0,0,0
84,4267.69,4696.41,4331.28,4368.21,4232.31,4456.92,4096.92,4001.03,4502.05,4264.62,3944.62,4665.64,4615.38,4360,1681,1672,12.972,0,0,0,0,0
85,4267.69,4696.41,4331.28,4368.21,4232.31,4457.44,4098.97,3995.38,4493.85,4264.62,3944.62,4665.64,4616.92,4355.9,1681,1667,12.987,0,0,0,0,0
86,4267.69,4696.41,4331.28,4368.21,4232.31,4463.59,4108.21,4004.62,4493.85,4264.62,3944.62,4665.64,4613.85,4366.15,1682,1662,12.987,0,0,0,0,0
87,4267.69,4696.41,4331.28,4368.21,4232.31,4458.97,4104.1,4006.67,4496.92,4264.62,3944.62,4665.64,4614.87,4366.15,1681,1661,13.003,0,0,0,0,0
88,4267.69,4696.41,4331.28,4368.21,4232.31,4444.62,4092.31,3996.41,4495.9,4264.62,3944.62,4665.64,4611.79,4355.9,1682,1660,13.003,0,0,0,0,0
89,4267.69,4696.41,4331.28,4368.21,4232.31,4444.62,4090.77,3997.44,4495.9,4264.62,3944.62,4665.64,4602.56,4354.87,1682,1661,13.018,0,0,0,0,0
90,4267.69,4696.41,4331.28,4368.21,4232.31,4456.92,4094.36,4006.15,4495.38,4264.62,3944.62,4665.64,4601.54,4360.51,1684,1663,13.018,0,0,0,0,0
91,4267.69,4696.41,4331.28,4368.21,4232.31,4456.92,4095.38,4004.62,4494.36,4264.62,3944.62,4665.64,4605.13,4355.38,1684,1665,13.034,0,0,0,0,0
92,4267.69,4696.41,4331.28,4368.21,4232.31,4451.79,4098.46,4002.05,4495.9,4264.62,3944.62,4665.64,4604.1,4347.18,1684,1670,13.034,0,0,0,0,0
93,4267.69,4696.41,4331.28,4368.21,4232.31,4457.95,4103.08,4008.72,4495.9,4264.62,3944.62,4665.64,4603.08,4352.82,1685,1674,13.05,0,0,0,0,0
94,4267.69,4696.41,4331.28,4368.21,4232.31,4464.62,4107.18,4013.85,4495.38,4264.62,3944.62,4665.64,4605.13,4365.64,1684,1678,13.05,0,0,0,0,0
95,4267.69,4696.41,4331.28,4368.21,4232.31,4463.08,4111.79,4013.33,4495.9,4264.62,3944.62,4665.64,4605.13,4371.28,1683,1682,13.065,0,0,0,0,0
96,4267.69,4696.41,4331.28,4368.21,4232.31,4459.49,4112.82,4010.26,4495.9,4264.62,3944.62,4665.64,4604.62,4363.59,1683,1685,13.065,0,0,0,0,0
97,4267.69,4696.41,4331.28,4368.21,4232.31,4464.62,4112.82,4013.33,4495.9,4264.62,3944.62,4665.64,4604.1,4348.72,1683,1687,13.081,0,0,0,0,0
98,4267.69,4696.41,4331.28,4368.21,4232.31,4475.9,4120.51,4023.59,4495.9,4264.62,3944.62,4665.64,4604.1,4352.31,1681,1690,13.081,0,0,0,0,0
99,4267.69,4696.41,4331.28,4368.21,4232.31,4474.36,4120.51,4025.13,4495.9,4264.62,3944.62,4665.64,4604.62,4366.15,1683,1692,13.096,0,0,0,0,0
100,4267.69,4696.41,4331.79,4368.21,4232.31,4461.03,4109.23,4016.41,4495.9,4264.62,3944.62,4665.64,4604.1,4360,1682,1695,13.096,0,0,0,0,0
101,4267.69,4696.41,4330.77,4368.21,4232.31,4457.44,4106.15,4013.85,4495.9,4264.62,3944.62,4665.64,4604.1,4347.69,1684,1697,13.112,0,0,0,0,0
102,4267.69,4696.41,4331.28,4368.21,4232.31,4463.08,4111.28,4020,4495.9,4264.62,3944.62,4665.64,4604.1,4349.74,1683,1698,13.112,0,0,0,0,0
103,4267.69,4696.41,4333.85,4368.21,4232.31,4463.08,4110.77,4021.03,4495.9,4264.62,3944.62,4665.64,4603.59,4343.59,1684,1701,13.128,0,0,0,0,0
104,4267.69,4696.41,4334.87,4368.21,4232.31,4457.44,4105.13,4012.31,4495.9,4264.62,3944.62,4665.64,4603.59,4329.23,1686,1701,13.128,0,0,0,0,0
105,4267.69,4696.41,4334.87,4368.21,4232.31,4461.54,4107.69,4011.28,4495.9,4264.62,3944.62,4665.64,4604.62,4330.26,1688,1703,13.143,0,0,0,0,0
106,4267.69,4696.41,4334.87,4368.21,4232.31,4473.33,4113.33,4020,4495.9,4264.1,3944.62,4665.64,4604.1,4332.31,1690,1702,13.143,0,0,0,0,0
107,4267.69,4696.41,4332.82,4368.21,4232.31,4477.95,4116.92,4024.62,4495.9,4263.59,3944.62,4665.64,4604.62,4326.15,1691,1702,13.159,0,0,0,0,0
108,4267.69,4696.41,4331.79,4368.21,4232.31,4472.31,4113.85,4021.03,4495.9,4264.1,3944.62,4665.64,4609.74,4325.13,1693,1698,13.159,0,0,0,0,0
109,4267.69,4696.41,4333.85,4368.21,4232.31,4469.74,4106.67,4020,4495.9,4264.1,3944.62,4665.64,4617.44,4325.64,1692,1694,13.175,0,0,0,0,0
110,4267.69,4696.41,4333.85,4368.21,4232.31,4474.36,4111.79,4026.15,4495.9,4264.1,3944.62,4665.64,4617.44,4325.64,1693,1689,13.175,0,0,0,0,0
111,4267.69,4696.41,4333.33,4368.21,4232.31,4475.9,4121.54,4030.26,4495.9,4263.59,3944.62,4665.64,4607.18,4327.18,1693,1685,13.19,0,0,0,0,0
112,4267.69,4696.41,4335.9,4368.21,4232.31,4475.38,4121.03,4028.72,4495.9,4263.59,3944.62,4665.64,4601.54,4328.21,1694,1680,13.19,0,0,0,0,0
113,4267.69,4696.41,4335.9,4368.21,4232.31,4477.44,4118.46,4028.72,4495.9,4265.13,3944.62,4665.64,4605.13,4326.67,1693,1675,13.206,0,0,0,0,0
114,4267.69,4696.41,4333.85,4368.21,4232.31,4478.97,4123.08,4029.23,4495.9,4265.13,3944.62,4665.64,4603.08,4327.69,1693,1673,13.206,0,0,0,0,0
115,4267.69,4696.41,4333.85,4368.21,4232.31,4477.44,4119.49,4021.03,4495.9,4264.1,3944.62,4665.64,4601.03,4327.69,1692,1668,13.221,0,0,0,0,0
116,4267.69,4696.41,4334.36,4368.21,4232.31,4475.9,4113.33,4017.44,4495.9,4263.59,3944.62,4665.64,4611.79,4324.1,1689,1667,13.221,0,0,0,0,0
117,4267.69,4696.41,4333.33,4368.21,4232.31,4477.95,4121.03,4030.26,4495.9,4264.1,3944.62,4665.64,4614.87,4326.67,1689,1664,13.237,0,0,0,0,0
118,4267.69,4696.41,4333.85,4368.21,4232.31,4477.95,4124.62,4034.36,4495.9,4264.1,3944.62,4665.64,4602.05,4328.72,1686,1663,13.237,0,0,0,0,0
119,4267.69,4696.41,4335.9,4368.21,4232.31,4475.9,4118.97,4030.26,4495.38,4263.59,3944.62,4665.64,4601.54,4322.56,1684,1662,13.253,0,0,0,0,0
120,4267.69,4696.41,4335.38,4368.21,4232.31,4476.41,4121.03,4036.41,4495.38,4264.1,3944.62,4665.64,4613.33,4324.62,1681,1662,13.253,0,0,0,0,0
121,4267.69,4696.41,4333.85,4368.21,4232.31,4480,4127.18,4043.59,4496.41,4264.1,3944.62,4665.64,4615.9,4336.41,1679,1664,13.268,0,0,0,0,0
122,4267.69,4696.41,4333.85,4368.21,4232.31,4476.41,4123.08,4035.38,4495.38,4263.59,3944.62,4665.64,4613.33,4334.36,1677,1668,13.268,0,0,0,0,0
123,4267.69,4696.41,4333.85,4368.21,4232.31,4470.26,4116.92,4021.03,4495.9,4263.59,3944.62,4665.64,4613.85,4324.1,1677,1678,13.284,0,0,0,0,0
124,4267.69,4696.41,4333.33,4368.21,4232.31,4472.31,4120,4021.54,4500,4264.1,3944.62,4665.64,4614.36,4325.13,1677,1684,13.284,0,0,0,0,0
125,4267.69,4696.41,4334.36,4368.21,4232.31,4475.9,4121.54,4029.23,4505.64,4263.59,3944.62,4665.64,4616.92,4329.74,1679,1690,13.3,0,0,0,0,0
126,4267.69,4696.41,4334.36,4368.21,4232.31,4474.87,4116.92,4025.64,4505.13,4263.59,3944.62,4665.64,4613.33,4330.77,1680,1696,13.3,0,0,0,0,0
127,4267.69,4696.41,4333.33,4368.21,4232.31,4472.82,4112.82,4021.03,4497.44,4264.62,3944.62,4665.64,4604.1,4324.62,1683,1700,13.315,0,0,0,0,0
128,4267.69,4696.41,4333.85,4368.21,4232.31,4471.79,4113.33,4027.18,4492.82,4265.64,3944.62,4665.64,4601.03,4313.85,1684,1703,13.315,0,0,0,0,0
0,4267.69,4696.41,4334.36,4368.21,4232.31,4471.28,4116.92,4033.33,4494.36,4265.13,3944.62,4665.64,4605.13,4313.33,1687,1704,13.331,0,0,0,0,0
1,4267.69,4696.41,4332.82,4368.21,4232.31,4476.92,4120.51,4030.77,4494.87,4264.62,3944.62,4665.64,4605.64,4316.41,1687,1704,13.331,0,0,0,0,0
2,4267.69,4696.41,4332.82,4368.21,4232.31,4478.46,4121.54,4029.23,4493.33,4264.62,3944.62,4665.64,4603.08,4313.85,1689,1702,13.346,0,0,0,0,0
3,4267.69,4696.41,4332.82,4368.21,4232.31,4472.82,4119.49,4029.74,4495.38,4264.62,3944.62,4665.64,4603.59,4308.72,1689,1699,13.346,0,0,0,0,0
4,4267.69,4696.41,4332.82,4368.21,4232.31,4472.82,4119.49,4028.72,4495.38,4264.62,3944.62,4665.64,4603.59,4305.64,1689,1696,13.362,0,0,0,0,0
5,4267.69,4696.41,4332.82,4368.21,4232.31,4477.44,4121.54,4028.72,4491.28,4264.62,3944.62,4665.64,4604.1,4304.1,1689,1689,13.378,0,0,0,0,0
6,4267.69,4696.41,4332.82,4368.21,4232.31,4476.41,4121.54,4027.18,4498.97,4264.62,3944.62,4665.64,4604.62,4305.13,1687,1685,13.378,0,0,0,0,0
7,4267.69,4696.41,4332.82,4368.21,4232.31,4476.92,4121.54,4027.69,4505.13,4264.62,3944.62,4665.64,4604.1,4305.13,1686,1679,13.378,0,0,0,0,0
8,4267.69,4696.41,4332.82,4368.21,4232.31,4482.56,4125.13,4032.82,4497.95,4264.62,3944.62,4665.64,4603.59,4301.03,1687,1676,13.393,0,0,0,0,0
9,4267.69,4696.41,4332.82,4368.21,4232.31,4484.62,4130.26,4037.95,4492.31,4264.62,3944.62,4665.64,4609.74,4303.59,1689,1674,13.393,0,0,0,0,0
10,4267.69,4696.41,4332.82,4368.21,4232.31,4478.46,4126.67,4036.92,4495.38,4264.62,3944.62,4665.64,4616.41,4308.21,1689,1675,13.409,0,0,0,0,0
11,4267.69,4696.41,4332.82,4368.21,4232.31,4473.85,4121.54,4031.79,4495.9,4264.62,3944.62,4665.64,4609.74,4306.67,1691,1676,13.409,0,0,0,0,0
12,4267.69,4696.41,4332.82,4368.21,4232.31,4477.44,4125.13,4031.28,4493.85,4264.62,3944.62,4665.64,4602.05,4303.59,1691,1679,13.425,0,0,0,0,0
13,4267.69,4696.41,4332.82,4368.21,4232.31,4478.97,4127.18,4035.38,4495.38,4264.62,3944.62,4665.64,4611.28,4302.56,1692,1681,13.425,0,0,0,0,0
14,4267.69,4696.41,4332.82,4368.21,4232.31,4474.87,4125.13,4037.44,4494.87,4264.62,3944.62,4665.64,4619.49,4305.64,1690,1681,13.44,0,0,0,0,0
15,4267.69,4696.41,4333.85,4368.21,4232.31,4475.9,4125.64,4037.44,4494.36,4264.62,3944.62,4665.64,4608.21,4308.72,1688,1684,13.44,0,0,0,0,0
16,4267.69,4696.41,4334.87,4368.21,4232.31,4477.95,4129.23,4035.9,4494.87,4264.62,3944.62,4665.64,4600,4306.15,1687,1681,13.456,0,0,0,0,0
17,4267.69,4696.41,4334.87,4368.21,4232.31,4479.49,4132.31,4036.41,4494.87,4264.62,3944.62,4665.64,4604.1,4298.46,1683,1681,13.456,0,0,0,0,0
18,4267.69,4696.41,4334.87,4368.21,4232.31,4488.21,4137.44,4041.54,4495.38,4264.62,3944.62,4665.64,4606.67,4295.9,1681,1679,13.471,0,0,0,0,0
19,4267.69,4696.41,4333.85,4368.21,4232.31,4492.31,4136.92,4046.15,4494.87,4264.62,3944.62,4665.64,4609.23,4298.46,1677,1678,13.471,0,0,0,0,0
20,4267.69,4696.41,4332.82,4368.21,4232.31,4479.49,4126.15,4041.03,4494.87,4264.62,3944.62,4665.64,4614.87,4297.44,1675,1678,13.487,0,0,0,0,0
21,4267.69,4696.41,4332.82,4368.21,4232.31,4472.31,4121.03,4036.41,4494.87,4264.62,3944.62,4665.64,4616.92,4296.41,1672,1678,13.487,0,0,0,0,0
22,4267.69,4696.41,4332.82,4368.21,4232.31,4475.9,4123.59,4034.36,4494.87,4264.62,3944.62,4665.64,4610.26,4296.92,1672,1680,13.503,0,0,0,0,0
23,4267.69,4696.41,4332.82,4368.21,4232.31,4473.33,4122.05,4034.87,4494.87,4264.62,3944.62,4665.64,4602.56,4294.87,1672,1683,13.503,0,0,0,0,0
24,4267.69,4696.41,4332.82,4368.21,4232.31,4472.82,4124.62,4041.03,4494.87,4264.62,3944.62,4665.64,4601.54,4293.33,1674,1686,13.519,0,0,0,0,0
25,4267.69,4696.41,4332.82,4368.21,4232.31,4478.97,4135.9,4047.18,4494.87,4264.62,3944.62,4665.64,4603.59,4296.92,1676,1689,13.519,0,0,0,0,0
26,4267.69,4696.41,4332.82,4368.21,4232.31,4477.44,4133.85,4042.05,4494.87,4264.62,3944.62,4665.64,4602.05,4295.9,1679,1694,13.534,0,0,0,0,0
27,4267.69,4696.41,4332.82,4368.21,4232.31,4472.31,4122.05,4033.85,4494.87,4264.62,3944.62,4665.64,4602.05,4294.36,1683,1695,13.534,0,0,0,0,0
28,4267.69,4696.41,4332.82,4368.21,4232.31,4480,4127.18,4038.97,4494.87,4264.62,3944.62,4665.64,4602.05,4304.1,1684,1698,13.55,0,0,0,0,0
29,4267.69,4696.41,4332.82,4368.21,4232.31,4488.21,4137.44,4043.08,4494.87,4264.62,3944.62,4665.64,4600.51,4308.21,1688,1698,13.55,0,0,0,0,0
30,4267.69,4696.41,4332.82,4368.21,4232.31,4487.69,4137.44,4041.03,4494.87,4264.62,3944.62,4665.64,4607.18,4298.46,1690,1696,13.565,0,0,0,0,0
31,4267.69,4696.41,4332.82,4368.21,4232.31,4481.54,4131.79,4042.05,4494.87,4264.62,3944.62,4665.64,4614.87,4297.44,1693,1695,13.565,0,0,0,0,0
32,4267.69,4696.41,4332.82,4368.21,4232.31,4476.92,4129.74,4041.54,4494.87,4264.62,3944.62,4665.64,4612.31,4308.72,1695,1690,13.581,0,0,0,0,0
33,4267.69,4696.41,4332.82,4368.21,4232.31,4486.67,4133.33,4041.03,4494.87,4264.62,3944.62,4665.64,4608.72,4313.33,1695,1686,13.581,0,0,0,0,0
34,4267.69,4696.41,4332.82,4368.21,4232.31,4491.28,4137.44,4047.18,4494.87,4264.62,3944.62,4665.64,4611.28,4311.28,1695,1680,13.597,0,0,0,0,0
35,4267.69,4696.41,4332.82,4368.21,4232.31,4480,4136.92,4052.31,4494.87,4264.62,3944.62,4665.64,4612.31,4309.74,1695,1676,13.597,0,0,0,0,0
36,4267.69,4696.41,4332.82,4368.21,4232.31,4472.82,4131.79,4045.64,4494.87,4264.62,3944.62,4665.64,4609.23,4308.21,1695,1671,13.612,0,0,0,0,0
37,4267.69,4696.41,4332.82,4368.21,4232.31,4475.38,4123.59,4037.44,4494.87,4264.62,3944.62,4665.64,4609.74,4309.74,1695,1670,13.612,0,0,0,0,0
38,4267.69,4696.41,4332.82,4368.21,4232.31,4476.41,4120,4034.36,4494.36,4264.62,3944.62,4665.64,4610.77,4310.77,1696,1669,13.628,0,0,0,0,0
39,4267.69,4695.9,4332.82,4368.21,4232.31,4471.28,4118.97,4034.87,4495.38,4264.62,3944.62,4665.64,4608.21,4309.74,1694,1670,13.628,0,0,0,0,0
40,4267.69,4695.9,4332.82,4368.21,4232.31,4462.56,4113.85,4034.36,4494.36,4264.62,3944.62,4665.64,4602.05,4307.18,1696,1672,13.644,0,0,0,0,0
41,4267.69,4696.41,4332.82,4368.21,4232.31,4463.08,4115.38,4036.92,4494.36,4264.62,3944.62,4665.64,4600.51,4309.74,1694,1674,13.644,0,0,0,0,0
42,4267.69,4695.9,4332.82,4368.21,4231.79,4475.38,4123.59,4041.03,4500,4264.62,3944.62,4665.64,4607.18,4313.85,1693,1678,13.659,0,0,0,0,0
43,4267.69,4693.85,4332.82,4368.21,4232.31,4475.9,4122.56,4040.51,4504.62,4264.62,3944.62,4665.64,4610.26,4311.28,1690,1678,13.659,0,0,0,0,0
44,4267.69,4694.36,4332.82,4368.21,4233.33,4472.82,4127.18,4045.64,4504.1,4264.62,3944.62,4665.64,4604.62,4309.74,1685,1679,13.675,0,0,0,0,0
45,4267.69,4697.95,4332.82,4368.21,4233.33,4480,4138.97,4055.9,4503.59,4264.62,3944.62,4665.64,4600,4311.28,1682,1679,13.675,0,0,0,0,0
46,4267.69,4698.97,4333.33,4368.21,4233.33,4480.51,4133.85,4053.33,4503.59,4264.62,3944.62,4665.64,4606.67,4311.79,1678,1680,13.69,0,0,0,0,0
47,4267.69,4697.44,4332.31,4368.21,4233.33,4475.38,4123.08,4043.59,4504.1,4264.62,3944.62,4665.64,4614.36,4310.26,1676,1681,13.69,0,0,0,0,0
48,4267.69,4697.44,4332.31,4368.21,4233.33,4476.92,4124.62,4038.46,4505.13,4264.62,3944.62,4665.64,4611.28,4308.72,1674,1685,13.706,0,0,0,0,0
49,4267.69,4697.44,4333.85,4368.21,4233.33,4476.92,4126.15,4038.97,4501.54,4264.62,3944.62,4665.64,4609.23,4307.69,1671,1689,13.706,0,0,0,0,0
50,4267.69,4695.9,4331.28,4368.21,4233.33,4475.9,4125.64,4043.59,4493.85,4264.62,3944.62,4665.64,4611.28,4311.79,1671,1692,13.722,0,0,0,0,0
51,4267.69,4695.9,4328.72,4368.21,4233.33,4471.79,4120,4033.85,4493.33,4264.62,3944.62,4665.64,4608.21,4309.74,1673,1693,13.722,0,0,0,0,0
52,4267.69,4695.9,4332.82,4368.21,4233.33,4466.15,4108.72,4014.87,4498.97,4264.62,3944.62,4665.64,4599.49,4298.97,1676,1696,13.737,0,0,0,0,0
53,4267.69,4695.9,4336.41,4368.21,4233.33,4469.74,4111.79,4020.51,4504.62,4264.62,3944.62,4665.64,4602.56,4301.03,1678,1699,13.737,0,0,0,0,0
54,4267.69,4699.49,4334.36,4368.21,4233.33,4476.41,4122.56,4037.95,4505.13,4264.62,3944.62,4665.64,4612.31,4312.82,1681,1701,13.753,0,0,0,0,0
55,4267.69,4703.59,4333.33,4368.21,4233.33,4471.28,4120,4033.85,4499.49,4264.62,3944.62,4665.64,4613.33,4313.33,1684,1702,13.753,0,0,0,0,0
56,4267.69,4704.1,4334.87,4368.21,4233.33,4462.05,4110.26,4018.97,4493.85,4264.62,3944.62,4665.64,4608.72,4309.23,1686,1702,13.769,0,0,0,0,0
57,4267.69,4703.59,4333.85,4368.21,4233.33,4463.59,4111.79,4020.51,4494.36,4264.62,3944.62,4665.64,4609.74,4309.74,1690,1701,13.769,0,0,0,0,0
58,4267.69,4704.1,4332.82,4368.21,4233.33,4469.74,4116.41,4028.72,4495.9,4264.62,3944.62,4665.64,4612.31,4311.79,1691,1699,13.784,0,0,0,0,0
59,4267.69,4704.1,4332.82,4368.21,4233.33,4471.28,4120.51,4035.38,4494.87,4264.62,3944.62,4665.64,4609.74,4321.03,1694,1695,13.784,0,0,0,0,0
60,4267.69,4703.59,4332.82,4368.21,4233.33,4472.31,4122.56,4037.44,4493.85,4264.62,3944.62,4665.64,4604.62,4328.72,1693,1689,13.8,0,0,0,0,0
61,4267.69,4703.59,4332.82,4368.21,4233.33,4471.79,4116.92,4028.72,4494.36,4264.62,3944.62,4665.64,4600,4324.62,1694,1684,13.8,0,0,0,0,0
62,4267.69,4703.59,4332.82,4368.21,4233.33,4464.1,4110.26,4020.51,4494.87,4264.62,3944.62,4665.64,4604.1,4323.08,1694,1676,13.815,0,0,0,0,0
63,4267.69,4703.59,4332.82,4368.21,4233.33,4456.92,4110.77,4026.67,4494.87,4264.62,3944.62,4665.64,4609.74,4326.15,1692,1669,13.815,0,0,0,0,0
64,4267.69,4703.59,4332.82,4368.21,4233.33,4459.49,4114.36,4033.33,4494.87,4264.62,3944.62,4665.64,4607.18,4325.13,1692,1663,13.831,0,0,0,0,0
65,4267.69,4703.59,4334.87,4368.21,4233.33,4461.03,4109.74,4024.62,4494.87,4264.62,3944.62,4665.64,4603.08,4323.08,1690,1660,13.831,0,0,0,0,0
66,4267.69,4703.59,4336.41,4368.21,4233.33,4458.46,4103.08,4014.87,4494.87,4264.62,3944.62,4665.64,4604.62,4323.08,1690,1657,13.847,0,0,0,0,0
67,4267.69,4703.59,4335.38,4368.21,4233.33,4461.03,4107.18,4020.51,4494.36,4264.62,3944.62,4665.64,4605.64,4328.72,1689,1660,13.847,0,0,0,0,0
68,4267.69,4703.59,4334.36,4368.21,4233.33,4463.08,4112.31,4027.69,4494.36,4264.62,3944.62,4665.64,4601.03,4335.38,1690,1662,13.862,0,0,0,0,0
69,4267.69,4703.59,4334.87,4368.21,4233.33,4460,4107.18,4021.03,4496.41,4264.62,3944.62,4665.64,4606.67,4336.92,1686,1664,13.862,0,0,0,0,0
70,4267.69,4703.59,4334.87,4368.21,4233.33,4457.44,4103.08,4015.9,4493.85,4264.62,3944.62,4665.64,4616.41,4333.33,1686,1668,13.878,0,0,0,0,0
71,4267.69,4703.59,4333.33,4368.21,4233.33,4459.49,4109.74,4024.1,4493.33,4264.62,3944.62,4665.64,4611.28,4329.74,1682,1668,13.878,0,0,0,0,0
72,4267.69,4703.59,4333.85,4368.21,4233.33,4461.03,4106.67,4018.97,4504.62,4264.62,3944.62,4665.64,4601.54,4327.69,1679,1672,13.894,0,0,0,0,0
73,4267.69,4703.59,4334.36,4368.21,4233.33,4458.97,4096.92,4002.56,4506.15,4264.62,3944.62,4665.64,4600,4327.18,1677,1673,13.894,0,0,0,0,0
74,4267.69,4703.59,4334.36,4368.21,4233.33,4457.95,4101.03,4010.26,4493.33,4264.62,3944.62,4665.64,4606.67,4330.77,1674,1678,13.909,0,0,0,0,0
75,4267.69,4703.59,4335.38,4368.21,4233.33,4462.56,4111.28,4030.26,4494.87,4264.62,3944.62,4665.64,4612.31,4338.46,1673,1681,13.909,0,0,0,0,0
76,4267.69,4703.59,4335.38,4368.21,4233.33,4462.05,4108.21,4023.08,4506.15,4264.62,3944.62,4665.64,4615.9,4345.13,1672,1685,13.925,0,0,0,0,0
77,4267.69,4703.59,4333.85,4368.21,4233.33,4456.92,4103.59,4009.74,4504.62,4264.62,3944.62,4665.64,4614.36,4340.51,1672,1689,13.925,0,0,0,0,0
78,4267.69,4703.59,4333.33,4368.21,4233.33,4461.03,4109.74,4018.46,4501.54,4264.62,3944.62,4665.64,4612.82,4336.92,1673,1694,13.94,0,0,0,0,0
79,4267.69,4703.59,4334.36,4368.21,4233.33,4458.97,4106.67,4023.59,4503.08,4264.62,3944.62,4665.64,4616.92,4340.51,1676,1699,13.94,0,0,0,0,0
80,4267.69,4703.59,4333.85,4368.21,4232.82,4444.1,4089.74,4007.69,4502.56,4264.62,3944.62,4665.64,4613.33,4333.85,1677,1703,13.956,0,0,0,0,0
81,4267.69,4703.59,4333.85,4368.21,4232.31,4447.18,4089.23,3999.49,4506.15,4264.62,3944.62,4665.64,4604.62,4331.79,1681,1708,13.956,0,0,0,0,0
82,4267.69,4703.59,4335.9,4368.21,4231.79,4462.05,4105.64,4011.79,4501.54,4264.62,3944.62,4665.64,4600.51,4349.74,1684,1710,13.972,0,0,0,0,0
83,4267.69,4703.59,4335.9,4368.21,4231.79,4460.51,4110.26,4023.08,4491.79,4264.62,3944.62,4665.64,4603.08,4362.56,1687,1713,13.972,0,0,0,0,0
84,4267.69,4703.59,4334.87,4368.21,4231.79,4454.36,4102.56,4016.92,4498.46,4264.62,3944.62,4665.64,4603.59,4354.87,1690,1710,13.987,0,0,0,0,0
85,4267.69,4703.59,4334.36,4368.21,4231.79,4455.9,4097.95,4005.64,4504.62,4264.62,3944.62,4665.64,4601.03,4349.23,1692,1708,13.987,0,0,0,0,0
86,4267.69,4703.59,4334.87,4368.21,4231.79,4455.38,4097.95,4003.59,4495.9,4264.62,3944.62,4665.64,4601.54,4352.31,1694,1702,14.003,0,0,0,0,0
87,4267.69,4703.59,4334.87,4368.21,4231.79,4456.41,4103.59,4010.77,4490.77,4264.62,3944.62,4665.64,4603.59,4355.9,1694,1697,14.003,0,0,0,0,0
88,4267.69,4703.59,4333.85,4368.21,4231.79,4461.54,4108.21,4021.54,4493.85,4264.62,3944.62,4665.64,4601.54,4360.51,1695,1689,14.019,0,0,0,0,0
89,4267.69,4703.59,4333.33,4368.21,4231.79,4459.49,4103.59,4021.54,4497.95,4264.62,3944.62,4665.64,4602.56,4356.92,1695,1683,14.019,0,0,0,0,0
90,4267.69,4703.59,4334.36,4368.21,4231.79,4460,4104.62,4014.87,4502.56,4264.62,3944.62,4665.64,4613.33,4351.28,1696,1675,14.034,0,0,0,0,0
91,4267.69,4703.59,4335.9,4368.21,4231.79,4460,4106.67,4012.82,4504.62,4264.62,3944.62,4665.64,4615.38,4352.31,1695,1670,14.034,0,0,0,0,0
92,4267.69,4703.59,4335.9,4368.21,4231.79,4447.69,4095.38,4008.72,4502.56,4264.62,3944.62,4665.64,4604.1,4351.79,1696,1667,14.05,0,0,0,0,0
93,4267.69,4703.59,4334.87,4368.21,4231.79,4446.15,4090.77,4006.15,4498.97,4264.62,3944.62,4665.64,4601.03,4351.28,1697,1663,14.05,0,0,0,0,0
94,4267.69,4703.59,4334.87,4368.21,4231.79,4460,4101.54,4010.26,4494.36,4264.62,3944.62,4665.64,4605.64,4356.41,1697,1664,14.065,0,0,0,0,0
95,4267.69,4703.59,4334.87,4368.21,4231.79,4458.46,4102.05,4008.21,4493.85,4264.62,3944.62,4665.64,4602.56,4358.46,1697,1664,14.065,0,0,0,0,0
96,4267.69,4703.59,4334.36,4368.21,4232.31,4447.69,4091.79,4006.67,4495.9,4265.13,3944.62,4665.64,4600.51,4360,1694,1666,14.081,0,0,0,0,0
97,4267.69,4703.59,4334.87,4368.21,4232.82,4452.82,4093.85,4014.87,4494.87,4264.62,3944.62,4665.64,4602.56,4365.64,1693,1668,14.081,0,0,0,0,0
98,4267.69,4703.59,4334.87,4368.21,4233.33,4458.46,4102.05,4017.44,4493.85,4263.59,3944.62,4665.64,4601.03,4367.18,1689,1668,14.097,0,0,0,0,0
99,4267.69,4703.59,4332.31,4368.21,4233.33,4454.36,4105.13,4017.44,4494.36,4264.1,3944.62,4665.64,4604.62,4364.62,1685,1669,14.097,0,0,0,0,0
100,4267.69,4703.59,4331.79,4368.21,4233.33,4456.41,4107.18,4021.54,4493.85,4265.13,3944.62,4665.64,4611.28,4366.15,1679,1669,14.112,0,0,0,0,0
101,4267.69,4703.59,4334.36,4368.21,4233.33,4461.03,4105.13,4015.9,4494.36,4265.13,3944.62,4665.64,4610.77,4366.15,1675,1669,14.112,0,0,0,0,0
102,4267.69,4703.59,4334.36,4368.21,4233.33,4460.51,4102.05,4006.15,4493.85,4264.62,3944.62,4665.64,4610.26,4363.08,1671,1671,14.128,0,0,0,0,0
103,4267.69,4703.59,4332.82,4368.21,4233.33,4457.95,4101.03,4005.64,4493.85,4265.13,3944.62,4665.64,4610.26,4366.15,1668,1680,14.128,0,0,0,0,0
104,4267.69,4703.59,4332.82,4368.21,4231.79,4457.44,4099.49,4008.21,4493.85,4265.13,3944.62,4665.64,4605.64,4369.74,1667,1686,14.144,0,0,0,0,0
105,4267.69,4703.59,4333.33,4368.21,4231.28,4458.46,4100.51,4011.28,4493.85,4265.13,3944.62,4665.64,4602.05,4365.13,1669,1692,14.144,0,0,0,0,0
106,4267.69,4703.59,4332.82,4368.21,4231.28,4456.92,4105.13,4014.36,4494.36,4265.13,3944.62,4665.64,4601.03,4369.74,1670,1698,14.159,0,0,0,0,0
107,4267.69,4704.1,4332.82,4368.21,4231.28,4459.49,4106.67,4013.33,4494.36,4265.13,3944.62,4665.64,4604.62,4378.97,1673,1704,14.159,0,0,0,0,0
108,4267.69,4703.59,4332.82,4368.21,4231.28,4466.67,4107.69,4015.9,4494.36,4265.13,3944.62,4665.64,4612.31,4368.72,1677,1710,14.175,0,0,0,0,0
109,4267.69,4703.59,4332.82,4368.21,4231.28,4464.1,4109.23,4020.51,4493.85,4265.13,3944.62,4665.64,4613.85,4363.08,1681,1713,14.175,0,0,0,0,0
110,4267.69,4705.13,4332.82,4368.21,4231.28,4457.44,4110.77,4018.46,4493.85,4265.13,3944.62,4665.64,4610.26,4385.64,1683,1715,14.19,0,0,0,0,0
111,4267.69,4701.03,4332.82,4368.21,4231.28,4464.62,4115.38,4020.51,4494.36,4265.13,3944.62,4665.64,4609.23,4402.56,1687,1716,14.19,0,0,0,0,0
112,4267.69,4693.85,4332.82,4368.21,4231.28,4475.9,4121.54,4029.23,4493.85,4265.13,3944.62,4665.64,4606.15,4395.38,1690,1712,14.206,0,0,0,0,0
113,4267.69,4692.82,4332.82,4368.21,4231.28,4473.33,4121.03,4030.77,4493.85,4265.13,3944.62,4665.64,4600.51,4389.74,1692,1708,14.206,0,0,0,0,0
114,4267.69,4694.87,4332.82,4368.21,4231.28,4462.56,4116.92,4022.56,4493.33,4265.13,3944.62,4665.64,4601.54,4392.82,1695,1700,14.222,0,0,0,0,0
115,4267.69,4694.87,4332.82,4368.21,4231.28,4459.49,4116.41,4025.13,4495.38,4265.13,3944.62,4665.64,4603.59,4393.33,1694,1694,14.222,0,0,0,0,0
116,4267.69,4694.36,4332.82,4368.21,4231.28,4470.26,4121.54,4040,4493.33,4265.13,3944.62,4665.64,4602.56,4391.79,1696,1685,14.237,0,0,0,0,0
117,4267.69,4695.9,4332.82,4368.21,4231.28,4473.85,4123.59,4041.54,4492.82,4265.13,3944.62,4665.64,4602.56,4388.21,1695,1676,14.237,0,0,0,0,0
118,4267.69,4696.41,4332.82,4368.21,4231.28,4461.03,4118.97,4025.64,4501.54,4265.13,3944.62,4665.64,4602.56,4382.56,1696,1670,14.253,0,0,0,0,0
119,4267.69,4696.41,4332.82,4368.21,4231.28,4461.54,4118.97,4026.15,4505.13,4265.13,3944.62,4665.64,4602.56,4380,1696,1663,14.253,0,0,0,0,0
120,4267.69,4695.9,4332.82,4368.21,4231.28,4477.44,4127.18,4044.1,4496.92,4265.13,3944.62,4665.64,4602.56,4386.15,1697,1660,14.269,0,0,0,0,0
121,4267.69,4696.41,4332.82,4368.21,4231.28,4477.95,4124.62,4042.56,4492.82,4265.13,3944.62,4665.64,4602.56,4390.77,1696,1657,14.269,0,0,0,0,0
122,4267.69,4696.41,4332.82,4368.21,4231.28,4468.72,4115.9,4024.62,4495.9,4265.13,3944.62,4665.64,4602.56,4387.69,1696,1658,14.284,0,0,0,0,0
123,4267.69,4696.41,4332.82,4368.21,4231.28,4471.79,4116.41,4016.92,4496.41,4265.13,3944.62,4665.64,4602.56,4388.21,1695,1659,14.284,0,0,0,0,0
124,4267.69,4695.9,4332.82,4368.21,4231.28,4471.28,4120.51,4021.54,4495.9,4265.13,3944.62,4665.64,4602.56,4391.28,1692,1662,14.3,0,0,0,0,0
125,4267.69,4696.41,4332.82,4368.21,4231.28,4466.15,4122.56,4030.77,4495.38,4265.13,3944.62,4665.64,4602.05,4390.26,1689,1662,14.3,0,0,0,0,0
126,4267.69,4695.9,4332.82,4368.21,4231.28,4470.77,4125.13,4037.95,4494.36,4265.13,3944.62,4665.64,4601.54,4382.05,1684,1663,14.315,0,0,0,0,0
127,4267.69,4695.9,4332.82,4368.21,4231.28,4474.36,4123.08,4036.41,4495.38,4265.13,3944.62,4665.64,4603.08,4371.79,1681,1666,14.315,0,0,0,0,0
128,4267.69,4697.95,4333.85,4368.21,4231.28,4472.31,4125.13,4040.51,4496.41,4265.13,3944.62,4665.64,4602.05,4373.85,1676,1668,14.331,0,0,0,0,0
0,4267.69,4697.95,4334.87,4368.21,4231.28,4473.33,4138.97,4055.9,4495.38,4265.13,3944.62,4665.64,4601.03,4382.56,1672,1673,14.331,0,0,0,0,0
1,4267.69,4695.9,4334.36,4368.21,4231.28,4474.87,4137.95,4054.87,4495.9,4265.13,3944.62,4665.64,4609.23,4385.13,1671,1678,14.347,0,0,0,0,0
2,4267.69,4696.92,4333.33,4368.21,4231.28,4473.85,4127.69,4043.59,4495.9,4265.13,3944.62,4665.64,4616.41,4384.62,1670,1685,14.347,0,0,0,0,0
3,4267.69,4696.92,4333.85,4368.21,4231.28,4476.41,4133.33,4045.64,4495.9,4265.13,3944.62,4665.64,4615.38,4386.15,1671,1693,14.362,0,0,0,0,0
4,4267.69,4694.87,4334.87,4368.21,4231.28,4480,4135.9,4048.72,4495.9,4265.13,3944.62,4665.64,4613.85,4384.1,1673,1700,14.362,0,0,0,0,0
5,4267.69,4694.87,4334.36,4368.21,4231.28,4477.44,4126.15,4038.97,4495.9,4265.13,3944.62,4665.64,4615.38,4373.85,1676,1704,14.378,0,0,0,0,0
6,4267.69,4696.41,4334.36,4368.21,4231.28,4468.72,4118.46,4024.62,4495.9,4265.13,3944.62,4665.64,4614.36,4365.13,1677,1710,14.378,0,0,0,0,0
7,4267.69,4696.41,4334.87,4368.21,4231.28,4460.51,4110.26,4010.77,4495.38,4265.13,3944.62,4665.64,4614.87,4356.92,1682,1713,14.394,0,0,0,0,0
8,4267.69,4695.9,4334.87,4368.21,4231.28,4455.9,4102.56,4003.59,4495.9,4265.13,3944.62,4665.64,4616.92,4345.13,1683,1716,14.394,0,0,0,0,0
9,4267.69,4696.41,4334.87,4368.21,4231.28,4456.92,4106.15,4012.82,4495.9,4265.13,3944.62,4665.64,4615.38,4346.15,1688,1716,14.409,0,0,0,0,0
10,4267.69,4696.41,4334.87,4368.21,4231.28,4462.05,4111.79,4023.59,4494.36,4265.13,3944.62,4665.64,4613.85,4359.49,1689,1713,14.409,0,0,0,0,0
11,4267.69,4696.41,4334.36,4368.21,4231.28,4464.1,4107.18,4020,4497.44,4265.13,3944.62,4665.64,4615.38,4361.54,1691,1711,14.425,0,0,0,0,0
12,4267.69,4696.41,4334.87,4368.21,4231.28,4460,4104.1,4011.79,4504.1,4265.13,3944.62,4665.64,4616.92,4354.36,1693,1703,14.425,0,0,0,0,0
13,4267.69,4696.41,4336.41,4368.21,4231.28,4458.97,4104.1,4011.28,4505.13,4265.13,3944.62,4665.64,4606.67,4354.87,1693,1696,14.44,0,0,0,0,0
14,4267.69,4696.41,4334.36,4368.21,4231.28,4461.03,4105.64,4018.97,4505.13,4265.13,3944.62,4665.64,4599.49,4360,1693,1686,14.44,0,0,0,0,0
15,4267.69,4696.41,4332.82,4368.21,4231.28,4460.51,4109.23,4024.62,4506.15,4265.13,3944.62,4665.64,4611.28,4363.59,1692,1678,14.456,0,0,0,0,0
16,4267.69,4696.41,4334.36,4368.21,4231.28,4463.59,4112.82,4023.59,4498.46,4265.13,3944.62,4665.64,4613.33,4367.69,1693,1668,14.456,0,0,0,0,0
17,4267.69,4696.41,4335.38,4368.21,4231.28,4465.13,4115.9,4025.13,4497.95,4265.13,3944.62,4665.64,4600,4367.18,1691,1662,14.472,0,0,0,0,0
18,4267.69,4696.41,4333.33,4368.21,4231.28,4463.59,4118.97,4029.23,4505.13,4265.13,3944.62,4665.64,4605.64,4365.64,1693,1656,14.472,0,0,0,0,0
19,4267.69,4696.41,4332.82,4368.21,4231.28,4466.15,4121.54,4030.26,4500,4265.13,3944.62,4665.64,4614.87,4364.62,1691,1655,14.487,0,0,0,0,0
20,4267.69,4696.41,4334.36,4368.21,4231.28,4466.15,4115.38,4026.67,4490.26,4265.13,3944.62,4665.64,4605.13,4361.03,1692,1655,14.487,0,0,0,0,0
21,4267.69,4696.41,4334.87,4368.21,4231.28,4461.03,4108.21,4026.15,4493.33,4265.13,3944.62,4665.64,4600,4356.41,1691,1656,14.503,0,0,0,0,0
22,4267.69,4696.41,4334.36,4368.21,4231.28,4465.64,4112.82,4029.74,4495.9,4265.13,3944.62,4665.64,4606.67,4356.92,1690,1660,14.503,0,0,0,0,0
23,4267.69,4696.41,4334.36,4368.21,4231.28,4475.9,4119.49,4029.74,4493.33,4265.13,3944.62,4665.64,4605.13,4368.72,1690,1663,14.519,0,0,0,0,0
24,4267.69,4696.41,4334.87,4368.21,4231.28,4471.28,4114.36,4029.74,4493.85,4265.13,3944.62,4665.64,4602.05,4375.38,1687,1668,14.519,0,0,0,0,0
25,4267.69,4696.41,4334.87,4368.21,4231.28,4459.49,4107.69,4035.9,4494.36,4265.13,3944.62,4665.64,4604.62,4368.21,1688,1671,14.534,0,0,0,0,0
26,4267.69,4696.41,4334.36,4368.21,4231.28,4460.51,4110.26,4039.49,4493.85,4265.13,3944.62,4665.64,4605.13,4363.08,1686,1677,14.534,0,0,0,0,0
27,4267.69,4696.41,4334.36,4368.21,4231.28,4462.56,4105.64,4025.13,4494.36,4265.13,3944.62,4665.64,4604.1,4363.59,1686,1681,14.55,0,0,0,0,4
28,4267.69,4696.41,4335.38,4368.21,4231.28,4453.33,4093.33,4008.72,4493.85,4265.13,3944.62,4665.64,4603.08,4359.49,1686,1685,14.55,0,0,0,0,0
29,4267.69,4696.41,4335.9,4368.21,4231.28,4453.33,4092.31,4015.9,4493.85,4265.13,3944.62,4665.64,4606.67,4355.9,1685,1689,14.566,0,0,0,0,0
30,4267.69,4696.41,4334.87,4368.21,4231.28,4458.46,4096.92,4021.54,4494.36,4265.13,3944.62,4665.64,4611.28,4355.9,1684,1697,14.566,0,0,0,0,0
31,4267.69,4696.41,4334.36,4368.21,4231.28,4445.13,4091.79,4008.72,4493.85,4265.13,3944.62,4665.64,4611.79,4355.38,1684,1699,14.581,0,0,0,0,0
32,4267.69,4696.41,4334.87,4368.21,4231.28,4444.1,4092.31,4009.23,4493.85,4265.13,3944.62,4665.64,4612.82,4352.82,1684,1701,14.581,0,0,0,0,0
33,4267.69,4696.41,4334.87,4368.21,4231.28,4458.97,4100.51,4025.64,4494.36,4265.13,3944.62,4665.64,4614.87,4342.56,1684,1702,14.597,0,0,0,0,0
34,4267.69,4696.41,4334.36,4368.21,4231.28,4452.31,4092.82,4020.51,4494.36,4265.13,3944.62,4665.64,4616.41,4335.9,1684,1703,14.597,0,0,0,0,0
35,4267.69,4696.41,4334.87,4368.21,4231.28,4445.64,4088.72,4009.74,4494.36,4265.13,3944.62,4665.64,4610.77,4350.77,1684,1702,14.612,0,0,0,0,0
36,4267.69,4696.41,4335.9,4368.21,4231.28,4462.05,4103.59,4020,4493.85,4265.13,3944.62,4665.64,4603.59,4366.67,1683,1702,14.612,0,0,0,0,0
37,4267.69,4696.41,4335.9,4368.21,4231.28,4465.64,4107.18,4025.13,4493.85,4265.13,3944.62,4665.64,4600.51,4368.72,1684,1699,14.628,0,0,0,0,0
38,4267.69,4696.41,4334.87,4368.21,4231.28,4455.38,4098.46,4019.49,4494.36,4265.13,3944.62,4665.64,4604.62,4371.79,1682,1697,14.628,0,0,0,0,0
39,4267.69,4696.41,4334.36,4368.21,4231.28,4457.44,4096.92,4018.46,4494.36,4265.13,3944.62,4665.64,4611.79,4380.51,1683,1695,14.644,0,0,0,0,0
40,4267.69,4696.41,4334.87,4368.21,4231.28,4462.56,4094.87,4012.31,4494.36,4265.13,3944.62,4665.64,4615.9,4383.59,1682,1691,14.644,0,0,0,0,0
41,4267.69,4696.41,4334.87,4368.21,4231.28,4454.36,4088.21,4001.54,4493.85,4265.13,3944.62,4665.64,4614.36,4382.05,1683,1689,14.659,0,0,0,0,0
42,4267.69,4696.41,4333.33,4368.21,4231.28,4447.69,4088.21,4006.67,4493.85,4265.13,3944.62,4665.64,4613.85,4380.51,1683,1684,14.659,0,0,0,0,0
43,4267.69,4696.41,4333.33,4368.21,4231.28,4450.26,4092.31,4016.92,4493.85,4265.13,3944.62,4665.64,4615.9,4380.51,1682,1682,14.675,0,0,0,0,0
44,4267.69,4696.41,4333.85,4368.21,4231.28,4450.77,4088.72,4011.28,4493.33,4265.13,3944.62,4665.64,4613.85,4380,1682,1678,14.675,0,0,0,0,0
45,4267.69,4696.41,4333.85,4368.21,4231.28,4450.26,4091.28,4011.79,4494.87,4265.13,3944.62,4665.64,4613.85,4378.97,1681,1676,14.691,0,0,0,0,0
46,4267.69,4696.41,4333.85,4368.21,4231.28,4458.97,4103.08,4026.67,4493.33,4265.13,3944.62,4665.64,4616.41,4387.69,1681,1673,14.691,0,0,0,0,0
47,4267.69,4696.41,4333.85,4368.21,4231.28,4463.08,4103.08,4028.21,4493.33,4265.13,3944.62,4665.64,4611.79,4393.33,1679,1672,14.706,0,0,0,0,0
48,4267.69,4696.41,4333.85,4368.21,4231.28,4457.44,4091.28,4014.87,4500.51,4265.13,3944.62,4665.64,4609.74,4387.69,1679,1670,14.706,0,0,0,0,0
49,4267.69,4696.41,4333.85,4368.21,4231.28,4458.46,4093.33,4013.33,4507.18,4265.13,3944.62,4665.64,4610.77,4387.18,1677,1670,14.722,0,0,0,0,0
50,4267.69,4696.41,4333.85,4368.21,4231.28,4459.49,4097.44,4018.46,4504.62,4265.13,3944.62,4665.64,4604.1,4388.21,1678,1672,14.722,0,0,0,0,0
51,4267.69,4696.41,4333.85,4368.21,4231.28,4455.38,4090.77,4013.33,4503.59,4265.13,3944.62,4665.64,4601.54,4384.62,1678,1673,14.737,0,0,0,0,0
52,4267.69,4696.41,4333.85,4368.21,4231.28,4458.46,4092.31,4012.31,4506.15,4265.13,3944.62,4665.64,4610.77,4381.03,1679,1677,14.737,0,0,0,0,0
53,4267.69,4696.41,4333.85,4368.21,4230.77,4460.51,4093.85,4014.87,4500.51,4265.13,3944.62,4665.64,4613.85,4380.51,1681,1679,14.753,0,0,0,0,0
54,4267.69,4696.41,4333.85,4368.21,4232.31,4455.9,4091.79,4012.82,4492.82,4265.13,3944.62,4665.64,4608.72,4381.54,1680,1685,14.753,0,0,0,0,0
55,4267.69,4696.41,4334.36,4368.21,4233.33,4459.49,4098.97,4012.31,4493.33,4265.13,3944.62,4665.64,4609.74,4385.64,1683,1687,14.769,0,0,0,0,0
56,4267.69,4696.41,4334.87,4368.21,4232.82,4462.05,4099.49,4007.69,4495.9,4265.13,3944.62,4665.64,4612.31,4387.18,1684,1691,14.769,0,0,0,0,0
57,4267.69,4696.41,4334.87,4368.21,4232.82,4447.69,4088.21,3997.44,4494.87,4265.13,3944.62,4665.64,4610.26,4378.46,1684,1693,14.784,0,0,0,0,0
58,4267.69,4696.41,4334.36,4368.21,4233.33,4440.51,4087.18,3997.44,4492.31,4264.62,3944.62,4665.64,4609.74,4367.18,1685,1696,14.784,0,0,0,0,0
59,4267.69,4696.41,4334.87,4368.21,4232.31,4454.36,4094.87,4011.79,4496.41,4265.13,3944.62,4665.64,4609.74,4374.36,1686,1696,14.8,0,0,0,0,0
60,4267.69,4696.41,4334.87,4368.21,4231.79,4462.56,4100,4020.51,4503.08,4265.13,3944.62,4665.64,4610.77,4402.05,1685,1697,14.8,0,0,0,0,0
61,4267.69,4696.41,4334.36,4368.21,4231.79,4459.49,4105.64,4019.49,4505.13,4263.08,3944.62,4665.64,4610.77,4423.59,1687,1697,14.816,0,0,0,0,0
62,4267.69,4696.41,4334.36,4368.21,4231.79,4460,4108.21,4022.56,4502.56,4263.08,3944.62,4665.64,4605.64,4430.26,1686,1695,14.816,0,0,0,0,0
63,4267.69,4696.41,4334.36,4368.21,4231.79,4461.54,4106.15,4029.74,4502.56,4264.62,3944.62,4665.64,4601.54,4442.56,1686,1695,14.831,0,0,0,0,0
64,4267.69,4696.41,4334.87,4368.21,4231.79,4461.03,4105.64,4033.33,4505.64,4265.64,3944.62,4665.64,4602.05,4456.41,1687,1692,14.831,0,0,0,0,0
65,4267.69,4696.41,4334.87,4368.21,4231.79,4461.54,4108.21,4035.9,4506.67,4265.13,3944.62,4665.64,4602.56,4460,1686,1690,14.847,0,0,0,0,0
66,4267.69,4696.41,4334.36,4368.21,4231.79,4462.56,4110.77,4038.46,4501.03,4265.13,3944.62,4665.64,4602.05,4459.49,1687,1688,14.847,0,0,0,0,0
67,4267.69,4696.41,4334.87,4368.21,4231.79,4467.69,4109.23,4031.28,4493.33,4265.13,3944.62,4665.64,4603.08,4458.97,1685,1686,14.862,0,0,0,0,0
68,4267.69,4696.41,4334.87,4368.21,4231.79,4470.77,4106.67,4022.56,4493.33,4265.13,3944.62,4665.64,4602.56,4457.44,1686,1685,14.862,0,0,0,0,0
69,4267.69,4696.41,4333.85,4368.21,4231.79,4464.62,4107.69,4023.59,4495.9,4265.13,3944.62,4665.64,4600.51,4453.33,1685,1682,14.878,0,0,0,0,0
70,4267.69,4696.41,4332.82,4368.21,4231.79,4456.41,4107.69,4026.67,4494.87,4265.13,3944.62,4665.64,4607.18,4447.18,1686,1681,14.878,0,0,0,0,0
71,4267.69,4696.41,4332.82,4368.21,4232.31,4458.46,4104.62,4029.23,4494.36,4265.13,3944.62,4665.64,4614.87,4445.13,1686,1679,14.894,0,0,0,0,0
72,4267.69,4696.41,4332.82,4368.21,4231.79,4467.69,4108.21,4032.82,4494.36,4265.13,3944.62,4665.64,4612.82,4446.15,1687,1679,14.894,0,0,0,0,0
73,4267.69,4696.41,4332.82,4368.21,4231.79,4474.87,4117.95,4037.44,4493.85,4265.13,3944.62,4665.64,4608.72,4447.69,1686,1677,14.909,0,0,0,0,0
74,4267.69,4696.41,4332.82,4368.21,4232.31,4475.38,4124.1,4046.15,4494.36,4265.64,3944.62,4665.64,4610.77,4450.26,1686,1678,14.909,0,0,0,0,0
75,4267.69,4696.41,4332.82,4368.21,4232.31,4470.77,4121.03,4053.33,4493.85,4265.64,3944.62,4665.64,4611.79,4449.23,1687,1676,14.925,0,0,0,0,0
76,4267.69,4696.41,4332.82,4368.21,4232.31,4474.36,4126.15,4053.85,4493.33,4265.64,3944.62,4665.64,4610.26,4445.13,1685,1676,14.925,0,0,0,0,0
77,4267.69,4696.41,4332.82,4368.21,4231.28,4480,4137.95,4053.85,4493.85,4264.62,3944.62,4665.64,4609.74,4441.03,1687,1676,14.941,0,0,0,0,0
78,4267.69,4696.41,4332.82,4368.21,4230.77,4476.92,4134.87,4049.23,4494.36,4263.59,3944.62,4665.64,4610.26,4437.95,1685,1676,14.941,0,0,0,0,0
79,4267.69,4696.41,4332.82,4368.21,4231.28,4474.36,4123.08,4043.08,4492.82,4264.1,3944.62,4665.64,4610.77,4440.51,1686,1676,14.956,0,0,0,0,0
80,4267.69,4696.41,4332.82,4368.21,4231.28,4477.95,4120.51,4042.05,4495.9,4265.64,3944.62,4665.64,4608.21,4447.69,1686,1676,14.956,0,0,0,0,0
81,4267.69,4696.41,4332.82,4368.21,4230.77,4472.31,4116.92,4035.9,4503.08,4265.64,3944.62,4665.64,4602.56,4444.1,1686,1677,14.972,0,0,0,0,0
82,4267.69,4696.41,4332.82,4368.21,4230.77,4457.95,4100,4021.54,4505.13,4265.64,3944.62,4665.64,4602.56,4431.79,1686,1677,14.972,0,0,0,0,0
83,4267.69,4696.41,4332.82,4368.21,4230.77,4454.36,4090.77,4017.44,4502.05,4265.64,3944.62,4665.64,4609.23,4427.18,1686,1678,14.987,0,0,0,0,0
84,4267.69,4696.41,4332.82,4368.21,4230.26,4456.92,4098.46,4023.08,4502.05,4265.64,3944.62,4665.64,4612.82,4429.74,1686,1678,14.987,0,0,0,0,0
85,4267.69,4696.41,4332.82,4368.21,4231.79,4458.97,4105.13,4031.28,4505.13,4265.64,3944.62,4665.64,4610.26,4434.87,1685,1680,15.003,0,0,0,0,0
86,4267.69,4696.41,4332.82,4368.21,4232.31,4466.15,4108.21,4040,4504.62,4265.64,3944.62,4665.64,4609.74,4436.41,1684,1680,15.003,0,0,0,0,0
87,4267.69,4696.41,4332.82,4368.21,4231.28,4466.67,4110.26,4040,4498.97,4265.64,3944.62,4665.64,4611.79,4431.79,1685,1680,15.019,0,0,0,0,0
88,4267.69,4696.41,4332.82,4368.21,4231.28,4459.49,4113.33,4035.38,4494.36,4265.64,3944.62,4665.64,4611.28,4428.21,1685,1681,15.019,0,0,0,0,0
89,4267.69,4696.41,4332.82,4368.21,4232.82,4460,4113.33,4033.85,4494.36,4264.62,3944.62,4665.64,4609.74,4424.1,1685,1682,15.034,0,0,0,0,0
90,4267.69,4696.41,4332.82,4368.21,4232.82,4463.08,4109.74,4030.26,4494.87,4264.62,3944.62,4665.64,4611.28,4422.05,1685,1682,15.034,0,0,0,0,0
91,4267.69,4696.41,4332.82,4368.21,4231.79,4463.59,4107.18,4026.67,4494.36,4264.62,3944.62,4665.64,4610.26,4432.82,1685,1683,15.05,0,0,0,0,0
92,4267.69,4696.41,4332.82,4368.21,4231.28,4461.03,4107.69,4030.26,4495.38,4264.62,3944.1,4665.64,4603.59,4445.64,1685,1683,15.05,0,0,0,0,0
93,4267.69,4696.41,4332.82,4368.21,4231.28,4465.13,4111.28,4036.41,4495.9,4264.62,3945.64,4665.64,4603.59,4452.31,1685,1685,15.066,0,0,0,0,0
94,4267.69,4696.41,4332.82,4368.21,4231.79,4472.82,4114.36,4042.56,4495.38,4264.62,3946.15,4665.64,4613.33,4460,1686,1682,15.066,0,0,0,0,0
95,4267.69,4696.41,4332.82,4368.21,4231.79,4469.23,4112.31,4046.15,4495.9,4264.62,3944.62,4665.64,4617.44,4461.54,1684,1683,15.081,0,0,0,0,1
96,4267.69,4696.41,4332.82,4368.21,4231.28,4464.62,4112.31,4044.1,4495.9,4264.1,3943.08,4665.64,4612.82,4459.49,1686,1684,15.081,0,0,0,0,0
97,4267.69,4696.41,4332.82,4368.21,4231.79,4475.38,4119.49,4046.67,4495.9,4264.1,3943.59,4665.64,4612.82,4466.15,1684,1681,15.097,0,0,0,0,0
98,4267.69,4696.41,4332.82,4368.21,4231.79,4477.95,4121.54,4046.15,4495.9,4264.1,3943.59,4665.64,4614.87,4466.15,1685,1682,15.097,0,0,0,0,0
99,4267.69,4696.41,4332.82,4368.21,4231.79,4469.23,4120,4037.44,4495.9,4264.1,3943.08,4665.64,4613.85,4456.92,1685,1681,15.112,0,0,0,0,0
100,4267.69,4696.41,4332.82,4368.21,4231.79,4474.36,4120.51,4033.33,4495.9,4264.1,3943.59,4665.64,4614.87,4457.95,1686,1682,15.112,0,0,0,0,0
101,4267.69,4696.41,4332.82,4368.21,4231.79,4475.9,4113.85,4032.82,4495.9,4264.1,3943.59,4665.64,4615.9,4462.56,1685,1681,15.128,0,0,0,0,0
102,4267.69,4696.41,4332.82,4368.21,4231.79,4461.03,4097.44,4027.69,4495.9,4264.1,3943.59,4665.64,4613.85,4461.03,1686,1680,15.128,0,0,0,0,0
103,4267.69,4696.41,4332.82,4368.21,4231.28,4453.85,4092.82,4025.64,4495.9,4264.1,3943.59,4665.64,4615.38,4458.46,1686,1679,15.144,0,0,0,0,0
104,4267.69,4696.41,4332.82,4368.21,4231.28,4456.92,4098.46,4027.69,4495.9,4264.1,3943.59,4665.64,4615.38,4452.82,1685,1680,15.144,0,0,0,0,0
105,4267.69,4696.41,4332.82,4368.21,4231.79,4460,4108.72,4036.92,4495.9,4264.1,3943.59,4665.64,4607.18,4446.15,1686,1678,15.159,0,0,0,0,0
106,4267.69,4696.41,4332.82,4368.21,4231.28,4461.54,4117.95,4047.18,4495.9,4264.1,3943.59,4665.64,4599.49,4445.13,1685,1679,15.159,0,0,0,0,0
107,4267.69,4696.41,4332.82,4368.21,4231.28,4468.21,4121.03,4040.51,4495.38,4264.1,3943.59,4665.64,4602.05,4444.1,1686,1678,15.175,0,0,0,0,0
108,4267.69,4696.41,4332.82,4368.21,4232.31,4475.9,4127.69,4037.44,4495.9,4264.1,3943.59,4665.64,4610.26,4440.51,1685,1678,15.175,0,0,0,0,0
109,4267.69,4696.41,4332.82,4368.21,4232.31,4478.46,4134.87,4052.31,4495.9,4264.1,3943.59,4665.64,4615.38,4446.67,1686,1680,15.191,0,0,0,0,0
110,4267.69,4696.41,4332.82,4368.21,4232.31,4478.46,4128.72,4054.87,4494.87,4264.1,3943.59,4665.64,4615.9,4456.92,1686,1679,15.191,0,0,0,0,0
111,4267.69,4696.41,4333.33,4368.21,4232.31,4472.31,4113.85,4038.46,4496.92,4264.1,3943.59,4665.64,4614.87,4451.28,1686,1681,15.206,0,0,0,0,0
112,4267.69,4696.41,4334.36,4368.21,4232.82,4460.51,4104.62,4029.23,4502.56,4264.1,3943.59,4665.64,4614.87,4436.41,1687,1682,15.206,0,0,0,0,0
113,4267.69,4696.41,4334.87,4368.21,4231.28,4459.49,4104.62,4033.33,4504.62,4264.1,3943.59,4665.64,4614.36,4431.28,1687,1683,15.222,0,0,0,0,0
114,4267.69,4696.41,4334.36,4368.21,4230.77,4462.56,4105.13,4031.28,4503.59,4264.1,3943.59,4665.64,4615.9,4431.79,1686,1684,15.222,0,0,0,0,0
115,4267.69,4696.41,4334.36,4368.21,4232.82,4457.44,4100.51,4026.67,4502.05,4264.1,3943.59,4665.64,4617.44,4425.64,1686,1685,15.237,0,0,0,0,0
116,4267.69,4696.41,4334.87,4368.21,4233.85,4463.08,4106.67,4034.36,4502.05,4264.1,3943.59,4665.64,4606.67,4428.72,1687,1684,15.237,0,0,0,0,0
117,4267.69,4696.41,4334.87,4368.21,4232.31,4475.9,4122.05,4045.13,4505.64,4264.1,3943.59,4665.64,4601.03,4441.03,1685,1684,15.253,0,0,0,0,0
118,4267.69,4696.41,4334.36,4368.21,4232.31,4474.87,4120.51,4040.51,4501.54,4264.1,3943.59,4665.64,4612.82,4440,1687,1684,15.253,0,0,0,0,0
119,4267.69,4696.41,4332.82,4368.21,4232.82,4470.77,4111.79,4034.87,4492.82,4264.62,3943.59,4665.64,4616.92,4432.31,1686,1683,15.269,0,0,0,0,0
120,4267.69,4696.41,4333.33,4368.21,4232.82,4475.38,4120.51,4043.59,4498.46,4265.64,3943.59,4665.64,4604.62,4431.28,1686,1685,15.269,0,0,0,0,0
121,4267.69,4696.41,4333.85,4368.21,4233.33,4476.41,4126.67,4048.21,4505.64,4265.64,3943.59,4665.64,4600,4428.21,1686,1684,15.284,0,0,0,0,0
122,4267.69,4696.41,4333.85,4368.21,4233.85,4473.33,4115.9,4040.51,4503.59,4265.64,3943.59,4665.64,4604.62,4426.67,1686,1686,15.284,0,0,0,0,0
123,4267.69,4696.41,4333.85,4368.21,4232.82,4467.18,4108.72,4034.87,4502.56,4265.64,3943.59,4665.64,4605.13,4431.28,1687,1685,15.3,0,0,0,0,0
124,4267.69,4696.41,4333.85,4368.21,4232.31,4462.05,4108.21,4034.36,4501.03,4265.64,3943.59,4665.64,4604.1,4428.21,1687,1686,15.3,0,0,0,0,0
125,4267.69,4696.41,4333.85,4368.21,4231.79,4469.74,4110.77,4037.44,4495.38,4265.64,3943.59,4665.64,4604.62,4425.13,1687,1686,15.316,0,0,0,0,0
126,4267.69,4696.41,4333.85,4368.21,4231.79,4473.85,4112.82,4034.87,4494.87,4265.64,3943.59,4665.64,4604.62,4429.74,1686,1686,15.316,0,0,0,0,0
127,4267.69,4696.41,4333.85,4368.21,4231.79,4461.54,4109.23,4024.62,4495.38,4265.64,3943.59,4665.64,4604.1,4423.59,1687,1685,15.331,0,0,0,0,0
128,4267.69,4696.41,4333.85,4368.21,4231.79,4457.44,4107.69,4020.51,4493.33,4265.64,3943.59,4665.64,4604.62,4411.28,1685,1684,15.331,0,0,0,0,0
0,4267.69,4696.41,4333.85,4368.21,4231.79,4470.77,4111.79,4029.74,4493.85,4265.64,3943.59,4665.64,4604.1,4414.36,1687,1685,15.347,0,0,0,0,0
1,4267.69,4696.41,4333.85,4368.21,4231.79,4476.92,4113.33,4038.46,4494.87,4265.64,3943.59,4665.64,4604.1,4426.67,1685,1684,15.347,0,0,0,0,0
2,4267.69,4696.41,4333.85,4368.21,4231.79,4471.28,4109.23,4039.49,4494.36,4265.64,3943.59,4665.64,4604.1,4432.31,1685,1685,15.362,0,0,0,0,0
3,4267.69,4696.41,4333.85,4368.21,4231.79,4468.21,4105.13,4034.36,4492.82,4265.64,3943.59,4665.64,4604.1,4422.05,1685,1683,15.362,0,0,0,0,0
4,4267.69,4696.41,4333.85,4368.21,4231.79,4471.79,4106.15,4028.72,4495.38,4264.62,3943.59,4665.64,4603.59,4413.85,1684,1685,15.378,0,0,0,0,0
5,4267.69,4696.41,4333.85,4367.69,4231.79,4479.49,4112.82,4028.21,4504.62,4263.59,3943.59,4665.64,4604.62,4424.1,1685,1685,15.378,0,0,0,0,0
6,4267.69,4696.41,4333.85,4368.21,4231.79,4472.82,4109.74,4027.69,4505.64,4263.59,3943.59,4665.64,4604.62,4425.13,1684,1685,15.394,0,0,0,0,0
7,4267.69,4696.41,4333.85,4368.21,4232.31,4461.54,4105.13,4026.67,4495.38,4264.1,3943.59,4665.64,4602.05,4409.74,1685,1685,15.394,0,0,0,0,0
8,4267.69,4696.41,4333.85,4367.18,4231.79,4475.9,4117.95,4040.51,4492.31,4264.1,3943.59,4665.64,4607.18,4410.26,1684,1685,15.409,0,0,0,0,0
9,4267.69,4696.41,4333.85,4367.18,4232.31,4492.82,4132.82,4056.41,4495.9,4263.59,3943.59,4665.64,4611.79,4423.59,1685,1685,15.409,0,0,0,0,0
10,4267.69,4696.41,4333.85,4367.69,4233.85,4483.59,4126.15,4051.28,4494.87,4264.1,3943.59,4665.64,4604.62,4423.08,1684,1684,15.425,0,0,0,0,0
11,4267.69,4696.41,4333.85,4368.21,4233.33,4472.82,4110.77,4035.9,4493.33,4265.13,3943.59,4665.64,4602.56,4415.38,1684,1685,15.425,0,0,0,0,0
12,4267.69,4696.41,4333.85,4367.69,4231.28,4473.33,4106.15,4030.77,4493.85,4266.15,3943.59,4665.64,4613.85,4412.82,1683,1685,15.441,0,0,0,0,0
13,4267.69,4696.41,4333.85,4367.69,4231.79,4467.69,4104.62,4029.74,4494.36,4265.64,3943.59,4665.64,4616.41,4411.79,1684,1685,15.441,0,0,0,0,0
14,4267.69,4696.41,4333.85,4368.21,4231.79,4460,4097.44,4024.1,4493.85,4265.64,3943.59,4665.64,4613.33,4413.85,1683,1686,15.456,0,0,0,0,0
15,4267.69,4696.41,4333.85,4367.69,4230.26,4458.97,4091.79,4019.49,4493.85,4266.15,3943.59,4665.64,4616.92,4412.82,1684,1687,15.456,0,0,0,0,0
16,4267.69,4696.41,4333.85,4367.69,4231.79,4461.54,4094.87,4019.49,4493.85,4265.13,3943.59,4665.64,4612.31,4411.28,1684,1688,15.472,0,0,0,0,0
17,4267.69,4696.41,4333.85,4367.69,4232.82,4460.51,4095.38,4015.38,4493.85,4264.1,3943.59,4665.64,4601.03,4414.87,1685,1687,15.472,0,0,0,0,0
18,4267.69,4696.41,4333.85,4367.69,4231.28,4460.51,4096.41,4012.82,4494.36,4263.59,3943.59,4665.64,4601.54,4430.26,1684,1688,15.487,0,0,0,0,0
19,4267.69,4696.41,4333.85,4367.69,4231.28,4473.85,4108.72,4021.03,4493.85,4264.1,3943.59,4665.64,4605.13,4435.9,1685,1688,15.487,0,0,0,0,0
20,4267.69,4696.41,4333.85,4367.69,4232.82,4481.54,4114.36,4027.69,4493.33,4264.1,3943.59,4665.64,4602.56,4409.23,1684,1686,15.503,0,0,0,0,0
21,4267.69,4696.41,4333.85,4367.69,4232.31,4467.18,4103.08,4021.03,4493.85,4263.59,3943.59,4665.64,4603.08,4387.69,1683,1688,15.503,0,0,0,0,0
22,4267.69,4696.41,4333.85,4367.69,4232.31,4456.92,4092.31,4011.28,4494.87,4263.59,3943.59,4665.64,4605.13,4394.36,1684,1685,15.519,0,0,0,0,0
23,4267.69,4696.41,4333.85,4367.69,4232.31,4455.9,4089.23,4003.59,4492.31,4264.1,3943.59,4665.64,4603.59,4398.46,1682,1686,15.519,0,0,0,0,0
24,4267.69,4696.41,4333.85,4367.69,4232.31,4447.69,4084.1,3997.44,4494.87,4264.1,3943.59,4665.64,4603.08,4388.72,1684,1685,15.534,0,0,0,0,0
25,4267.69,4696.41,4333.85,4367.69,4232.31,4440.51,4075.9,3990.26,4503.08,4263.59,3943.59,4665.64,4603.59,4381.54,1683,1685,15.534,0,0,0,0,0
26,4267.69,4696.41,4333.85,4367.69,4232.31,4443.59,4073.85,3979.49,4505.13,4265.13,3943.59,4665.64,4603.59,4376.41,1684,1685,15.55,0,0,0,0,0
27,4267.69,4696.41,4333.85,4367.69,4232.31,4445.64,4074.36,3976.92,4502.56,4267.18,3943.59,4665.64,4603.59,4368.21,1684,1685,15.55,0,0,0,0,0
28,4267.69,4696.41,4333.85,4367.69,4232.31,4443.08,4068.21,3981.03,4502.56,4265.13,3943.59,4665.64,4603.59,4354.36,1686,1686,15.566,0,0,0,0,0
29,4267.69,4696.41,4333.85,4367.69,4232.31,4443.08,4064.1,3978.97,4503.59,4263.08,3943.59,4665.64,4603.59,4337.95,1685,1687,15.566,0,0,0,0,0
30,4267.69,4696.41,4333.85,4367.69,4232.31,4441.54,4065.64,3974.87,4504.1,4264.62,3943.59,4665.64,4603.59,4330.77,1686,1687,15.581,0,0,0,0,4
31,4267.69,4696.41,4333.85,4367.69,4232.31,4432.82,4064.1,3976.41,4503.08,4266.15,3943.59,4665.64,4603.59,4321.54,1686,1686,15.581,0,0,0,0,0
32,4267.69,4696.41,4333.85,4367.69,4232.31,4425.13,4057.44,3973.85,4495.9,4265.64,3943.59,4665.64,4603.59,4308.21,1686,1689,15.597,0,0,0,0,0
33,4267.69,4696.41,4333.85,4367.69,4232.31,4424.62,4052.82,3962.56,4491.79,4265.13,3943.59,4665.64,4603.59,4307.18,1687,1686,15.597,0,0,0,0,0
34,4267.69,4696.41,4333.85,4367.69,4232.31,4427.18,4050.26,3955.9,4494.36,4265.64,3943.59,4665.64,4603.59,4309.23,1685,1687,15.612,0,0,0,0,0
35,4267.69,4696.41,4333.85,4367.69,4232.31,4427.69,4051.79,3954.36,4495.38,4265.64,3943.59,4665.64,4603.08,4308.21,1687,1686,15.612,0,0,0,0,0
36,4267.69,4696.41,4333.85,4367.69,4231.28,4427.18,4056.41,3956.92,4494.87,4265.64,3943.59,4665.64,4603.08,4304.62,1685,1685,15.628,0,0,0,0,0
37,4267.69,4696.41,4333.85,4367.69,4231.28,4425.64,4052.31,3959.49,4494.36,4265.64,3943.59,4665.64,4604.1,4296.92,1685,1685,15.628,0,0,0,0,0
38,4267.69,4696.41,4333.85,4367.69,4231.28,4425.13,4044.1,3955.9,4493.85,4265.64,3943.59,4665.64,4602.05,4292.82,1686,1684,15.644,0,0,0,0,0
39,4267.69,4696.41,4333.85,4367.69,4231.28,4425.64,4044.1,3958.46,4493.85,4265.64,3943.59,4665.64,4603.59,4295.38,1685,1684,15.644,0,0,0,0,0
40,4267.69,4696.41,4333.85,4367.69,4231.28,4422.56,4046.67,3966.67,4493.85,4265.64,3943.59,4665.64,4611.79,4294.87,1685,1683,15.659,0,0,0,0,0
41,4267.69,4696.41,4333.85,4367.69,4231.28,4422.56,4051.79,3972.31,4494.36,4265.64,3943.59,4665.64,4617.44,4295.9,1685,1684,15.659,0,0,0,0,0
42,4267.69,4696.41,4333.85,4367.69,4230.77,4429.23,4060,3975.38,4494.36,4265.64,3943.59,4665.64,4614.87,4305.13,1685,1682,15.675,0,0,0,0,0
43,4267.69,4696.41,4333.85,4367.69,4232.82,4431.28,4060.51,3974.36,4492.31,4265.64,3943.59,4665.64,4613.85,4312.82,1684,1684,15.675,0,0,0,0,0
44,4267.69,4696.41,4333.85,4367.69,4233.85,4427.18,4053.85,3961.54,4497.95,4265.64,3943.59,4665.64,4618.97,4307.69,1686,1683,15.691,0,0,0,0,0
45,4267.69,4696.41,4333.85,4367.69,4231.79,4431.79,4056.92,3956.92,4503.08,4265.64,3943.59,4665.64,4613.33,4293.85,1685,1684,15.691,0,0,0,0,0
46,4267.69,4696.41,4333.85,4367.69,4230.77,4435.9,4064.1,3961.54,4497.44,4265.64,3943.59,4665.64,4601.54,4288.72,1686,1684,15.706,0,0,0,0,0
47,4267.69,4696.41,4333.85,4367.69,4232.31,4431.79,4059.49,3959.49,4492.82,4265.64,3943.59,4665.64,4604.62,4292.31,1685,1685,15.706,0,0,0,0,0
48,4267.69,4696.41,4333.85,4367.69,4231.28,4437.95,4062.05,3964.62,4494.87,4265.64,3943.59,4665.64,4613.85,4295.38,1686,1686,15.722,0,0,0,0,0
49,4267.69,4696.41,4333.85,4367.69,4230.26,4447.18,4071.28,3976.41,4494.36,4265.64,3943.59,4665.64,4611.79,4297.44,1686,1685,15.722,0,0,0,0,0
50,4267.69,4696.41,4333.85,4367.69,4231.28,4444.1,4066.15,3976.41,4493.33,4265.64,3943.59,4665.64,4607.69,4296.41,1685,1686,15.737,0,0,0,0,0
51,4267.69,4696.41,4333.85,4367.69,4231.79,4441.54,4058.46,3971.79,4495.38,4265.64,3943.59,4665.64,4611.28,4293.85,1686,1685,15.737,0,0,0,0,0
52,4267.69,4696.41,4333.85,4367.69,4231.28,4441.54,4061.03,3969.23,4494.87,4265.64,3943.59,4665.64,4611.28,4296.41,1685,1685,15.753,0,0,0,0,0
